Time (s)   roll (deg)
0.00030	6.13462
0.01936	6.47218
0.03835	5.55949
0.05700	6.71387
0.07624	7.49348
0.09517	7.14340
0.11405	7.08623
0.13291	6.09416
0.15176	6.82602
0.17060	6.26505
0.18913	6.89214
0.20798	6.54670
0.22682	6.59375
0.24565	7.83113
0.26448	6.66954
0.28331	7.30756
0.30182	5.71370
0.32068	7.08129
0.33954	6.27360
0.35837	6.37616
0.37742	6.79463
0.39620	7.45351
0.41489	6.50237
0.43384	6.87883
0.45271	5.85187
0.47126	7.61463
0.49012	6.67063
0.50916	7.48379
0.52784	6.60281
0.54667	6.87672
0.56547	6.57909
0.58426	6.75369
0.60305	6.57622
0.62191	7.16557
0.64053	6.63879
0.65944	7.29276
0.67833	7.42461
0.69719	6.40606
0.71605	7.18810
0.73456	6.57811
0.75340	7.49585
0.77224	6.60911
0.79108	7.69956
0.80992	6.64491
0.82877	8.07410
0.84727	6.04773
0.86612	7.87452
0.88496	6.61288
0.90380	6.93776
0.92265	6.45819
0.94154	8.11032
0.96014	7.10809
0.97907	7.49263
0.99798	7.71387
1.01685	6.51664
1.03570	6.81402
1.05470	7.35712
1.07354	7.95289
1.09237	6.73387
1.11119	6.99513
1.13001	6.24840
1.14884	6.61321
1.16732	6.77349
1.18614	7.27820
1.20497	6.19892
1.22379	8.11191
1.24266	6.78268
1.26151	8.51255
1.28001	7.63938
1.29885	7.39099
1.31769	6.13612
1.33665	6.14429
1.35562	6.34686
1.37462	7.33893
1.39329	7.15093
1.41224	6.65028
1.43119	6.43572
1.45015	5.79658
1.46918	7.43479
1.48782	5.86592
1.50677	6.33742
1.52572	6.05309
1.54467	7.90233
1.56363	6.18845
1.58259	7.02275
1.60121	5.16117
1.62011	6.99778
1.63900	6.05255
1.65790	8.43111
1.67686	6.32188
1.69587	6.27296
1.71448	5.78991
1.73343	6.50454
1.75242	5.91373
1.77145	6.09276
1.79041	5.72521
1.80931	6.42480
1.82784	6.36304
1.84677	5.33927
1.86573	6.34480
1.88472	5.82023
1.90368	6.93698
1.92235	5.94734
1.94142	6.42918
1.96034	4.93173
1.97923	5.90992
1.99810	4.44856
2.01704	6.25075
2.03574	5.22698
2.05461	6.09830
2.07349	4.99327
2.09236	6.03664
2.11122	5.33634
2.13008	5.66171
2.14860	5.85467
2.16744	5.88918
2.18626	5.86987
2.20545	6.10840
2.22441	5.69154
2.24326	4.91427
2.26171	6.01778
2.28049	4.68121
2.29928	4.97234
2.32049	5.03886
2.33965	6.22193
2.35864	5.41272
2.37720	6.19600
2.39604	5.39053
2.41457	6.31384
2.43364	5.00611
2.45283	6.69669
2.47158	4.89411
2.49028	6.55425
2.50895	5.78549
2.52796	6.75935
2.54698	5.01388
2.56594	5.55441
2.58461	6.54971
2.60351	8.25830
2.62237	6.64425
2.64122	6.85277
2.66005	7.11116
2.67889	5.69715
2.69739	6.64483
2.71635	5.47783
2.73561	7.46313
2.75451	5.64467
2.77332	7.29727
2.79216	5.99742
2.81067	7.41750
2.82961	5.64872
2.84876	7.23624
2.86782	6.53452
2.88672	6.37051
2.90531	6.34304
2.92417	7.16557
2.94351	5.98801
2.96261	6.40989
2.98155	5.99540
3.00045	6.73090
3.01903	6.80588
3.03804	7.41179
3.05727	7.73240
3.07617	7.18551
3.09498	7.44966
3.11380	6.22837
3.13251	7.81180
3.15173	7.36952
3.17063	6.85260
3.18946	6.90709
3.20826	7.03552
3.22707	5.97129
3.24617	6.46724
3.26503	7.03389
3.28387	5.85511
3.30273	7.21000
3.32160	7.77540
3.34046	7.24946
3.35895	6.32113
3.37780	6.57955
3.39665	5.94143
3.41550	7.20417
3.43439	6.42732
3.45293	6.76306
3.47181	5.84247
3.49067	6.32138
3.50983	7.21505
3.52881	6.09759
3.54991	5.99161
3.56871	6.29281
3.58767	6.18356
3.60655	5.99067
3.62540	6.34936
3.64423	6.67922
3.66304	6.76062
3.68148	4.99131
3.70026	5.56588
3.71907	4.89411
3.73800	5.42297
3.75689	6.06897
3.77575	5.49923
3.79426	7.07874
3.81310	5.55668
3.83192	5.38944
3.85084	4.60422
3.86970	6.04343
3.88856	5.07116
3.90717	6.15634
3.92603	5.65143
3.94487	6.89762
3.96372	4.67564
3.98257	5.06997
4.00106	4.10361
4.01990	5.31774
4.03873	6.09832
4.05755	6.20720
4.07625	5.11586
4.09535	5.08515
4.11400	5.00526
4.13295	4.02709
4.15185	5.13457
4.17043	4.94285
4.18950	6.21591
4.20843	4.98532
4.22691	6.46481
4.24575	4.85332
4.26461	5.88540
4.28346	3.72928
4.30237	5.91391
4.32146	5.24204
4.34025	5.34499
4.35917	5.78486
4.37805	4.84216
4.39690	6.10943
4.41575	4.30056
4.43425	6.45862
4.45310	4.50513
4.47192	6.21189
4.49075	5.87845
4.50959	5.55278
4.52843	5.13495
4.54692	5.79658
4.56580	4.88476
4.58466	6.01499
4.60350	5.96221
4.62233	5.58402
4.64117	5.37347
4.65964	5.63776
4.67847	6.89741
4.69731	4.12493
4.71614	7.56135
4.73498	6.31944
4.75387	7.76041
4.77245	5.89265
4.79131	8.08827
4.81016	5.30545
4.82911	6.95961
4.84806	6.18351
4.86665	7.39001
4.88550	7.11751
4.90447	6.46033
4.92333	7.49108
4.94220	7.56735
4.96111	7.80252
4.97962	6.83758
4.99846	9.12067
5.01730	6.63755
5.03613	7.91900
5.05500	6.95694
5.07387	8.74690
5.09235	7.21954
5.11102	8.87445
5.12985	8.22629
5.14927	7.25894
5.16831	7.82615
5.18722	8.89311
5.20576	7.59586
5.22466	8.75446
5.24323	8.05070
5.26188	7.48075
5.28052	8.21266
5.29914	8.20430
5.31794	7.81513
5.33699	7.78351
5.35602	9.04493
5.37513	8.72002
5.39398	8.36232
5.41283	6.91127
5.43160	8.94085
5.45027	7.58054
5.46882	8.27167
5.48740	6.83423
5.50613	8.99126
5.52514	7.55839
5.54413	9.35541
5.56297	7.56400
5.58172	8.48233
5.60090	7.50145
5.61998	8.88065
5.63899	7.57525
5.65799	8.25226
5.67705	7.76624
5.69606	8.81560
5.71509	7.12934
5.73411	7.99429
5.75304	8.27527
5.77204	8.01079
5.79100	7.26462
5.80996	6.65875
5.82891	6.41253
5.84787	7.32717
5.86651	6.32188
5.88549	7.22824
5.90448	5.88718
5.92343	7.28491
5.94239	7.36994
5.96156	6.77508
5.98060	5.66933
5.99983	6.54256
6.01887	4.99457
6.03784	5.22305
6.05691	5.03542
6.07587	7.00249
6.09546	6.80288
6.11414	5.08160
6.13316	4.66874
6.15216	4.50742
6.17092	5.71478
6.18986	5.05672
6.20857	5.61551
6.22726	5.38013
6.24596	5.50660
6.26479	5.04371
6.28363	5.30788
6.30213	5.32616
6.32099	5.19552
6.33984	4.70293
6.35869	5.67753
6.37756	5.14979
6.39611	4.77958
6.41500	4.48245
6.43388	4.20209
6.45276	4.13675
6.47162	4.41620
6.49048	4.98980
6.50901	5.04976
6.52785	4.87984
6.54669	4.65965
6.56553	5.28500
6.58437	3.95161
6.60321	4.53588
6.62171	4.88129
6.64054	5.73526
6.65939	4.86036
6.67826	4.37091
6.69717	4.87391
6.71607	5.69450
6.73463	4.90437
6.75351	5.97820
6.77239	5.89949
6.79127	6.48991
6.81020	5.45137
6.82877	4.49568
6.84763	5.50296
6.86650	4.44712
6.88534	6.31818
6.90418	5.07041
6.92306	5.89949
6.94156	5.36954
6.96041	4.19874
6.97927	6.01998
6.99816	5.24520
7.01705	5.78748
7.03596	5.48442
7.05418	5.69347
7.07320	5.10982
7.09216	6.13849
7.11075	5.86672
7.12972	5.74544
7.14877	6.61487
7.16712	6.35239
7.18623	5.82833
7.20523	6.17286
7.22417	5.66633
7.24313	5.73614
7.26177	6.29139
7.28069	6.99207
7.29964	5.57303
7.31865	5.90853
7.33760	5.76080
7.35638	6.48288
7.37544	6.41604
7.39428	5.97345
7.41289	7.34616
7.43190	6.33660
7.45113	6.17630
7.47010	6.33069
7.48866	6.69067
7.50755	6.58257
7.52638	6.27699
7.54518	5.76200
7.56404	7.40257
7.58292	6.01499
7.60148	6.44515
7.62032	6.45169
7.63915	8.12282
7.65804	5.21730
7.67694	6.86737
7.69584	6.33235
7.71494	7.78967
7.73374	5.99218
7.75290	7.34736
7.77192	6.00743
7.79091	6.51842
7.80958	6.12217
7.82852	7.08636
7.84743	6.14041
7.86640	6.35613
7.88536	6.41672
7.90441	6.88000
7.92372	7.07389
7.94274	7.18515
7.96175	6.73938
7.98079	6.14257
7.99983	6.81796
8.01886	5.31833
8.03753	6.89428
8.05652	6.05065
8.07550	7.63508
8.09446	5.33477
8.11343	6.64326
8.13210	5.63582
8.15105	7.75212
8.16996	4.76152
8.18882	7.23227
8.20769	5.94357
8.22654	6.43422
8.24508	5.36806
8.26396	5.43800
8.28282	6.35278
8.30247	6.30359
8.32229	5.77035
8.34129	6.00119
8.36081	5.00965
8.37993	6.15365
8.39880	5.50850
8.41764	5.78729
8.43646	6.00258
8.45523	4.73500
8.47374	5.65199
8.49260	5.06451
8.51144	5.63755
8.53031	4.96794
8.54919	5.54161
8.56782	5.90177
8.58678	5.56107
8.60577	5.38836
8.62478	6.78886
8.64386	5.82316
8.66243	6.42095
8.68106	6.09555
8.69996	5.45764
8.71880	5.51970
8.73741	6.63068
8.75643	6.89604
8.77543	5.59652
8.79402	5.93949
8.81286	5.66782
8.83178	6.31649
8.85041	4.95573
8.86932	5.71766
8.88805	5.94567
8.90693	6.45390
8.92561	6.29088
8.94430	6.62546
8.96306	5.82021
8.98203	6.72801
9.00099	6.33154
9.01963	6.83739
9.03856	7.24347
9.05750	6.32741
9.07640	6.01021
9.09527	6.91067
9.11385	6.65097
9.13275	6.63332
9.15163	5.98953
9.17053	7.21914
9.18941	5.85935
9.20828	7.86881
9.22682	6.56565
9.24570	7.74582
9.26458	6.32202
9.28346	7.90847
9.30235	6.14904
9.32126	7.12588
9.33984	6.67582
9.35872	6.80117
9.37758	7.97942
9.39646	7.39219
9.41533	8.66320
9.43421	6.76158
9.45276	8.14823
9.47163	6.48563
9.49052	8.18910
9.50949	7.15315
9.52843	9.13625
9.54697	7.74923
9.56582	7.83695
9.58465	7.29978
9.60351	7.73960
9.62264	6.87975
9.64224	8.08827
9.66088	6.95335
9.67971	8.31954
9.69848	7.82085
9.71723	7.49467
9.73596	6.40805
9.75470	7.11287
9.77370	7.22111
9.79261	6.64800
9.81151	7.91447
9.83042	7.43553
9.84933	8.98196
9.86829	6.52569
9.88790	6.72768
9.90693	7.58296
9.92640	7.44031
9.94565	7.53060
9.96496	6.44520
9.98414	7.25584
