Time (s)   Thrust (N)   RPM
0.00034	0.00000	4808.72800
0.00425	0.00000	4808.72800
0.00813	0.00000	4841.91100
0.01198	0.00000	4841.91100
0.01581	0.00000	4841.91100
0.01966	0.00000	4841.91100
0.02362	0.00000	4841.91100
0.02755	0.00000	4841.91100
0.03143	0.00000	4853.74200
0.03529	0.00000	4853.74200
0.03915	0.00000	4853.74200
0.04299	0.00000	4853.74200
0.04683	0.00000	4853.74200
0.05067	0.00000	4853.74200
0.05451	0.00000	4818.31400
0.05834	0.00000	4818.31400
0.06218	0.00000	4818.31400
0.06602	0.00000	4818.31400
0.06985	0.00000	4818.31400
0.07367	0.00000	4818.31400
0.07750	0.00000	4811.58000
0.08134	0.00000	4811.58000
0.08518	0.00000	4811.58000
0.08903	0.00000	4811.58000
0.09286	0.00000	4811.58000
0.09671	0.00000	4767.46300
0.10054	0.00000	4767.46300
0.10437	0.00000	4767.46300
0.10820	0.00000	4767.46300
0.11205	0.00000	4767.46300
0.11588	0.00000	4767.46300
0.11971	0.00000	4772.97800
0.12354	0.00000	4772.97800
0.12737	0.00000	4772.97800
0.13122	0.00000	4772.97800
0.13506	0.00000	4772.97800
0.13890	0.00000	4772.97800
0.14274	0.00000	4748.16100
0.14658	0.00000	4748.16100
0.15042	0.00000	4748.16100
0.15426	0.00000	4748.16100
0.15809	0.00000	4748.16100
0.16192	0.00000	4748.16100
0.16575	0.00000	4731.61700
0.16958	0.00000	4731.61700
0.17342	0.00000	4731.61700
0.17726	0.00000	4731.61700
0.18110	0.00000	4731.61700
0.18494	0.00000	4701.28600
0.18877	0.00000	4701.28600
0.19260	0.00000	4701.28600
0.19643	0.00000	4701.28600
0.20027	0.00000	4701.28600
0.20411	0.00000	4701.28600
0.20794	0.00000	4757.25400
0.21177	0.00000	4757.25400
0.21560	0.00000	4757.25400
0.21944	0.00000	4757.25400
0.22328	0.00000	4757.25400
0.22711	0.00000	4757.25400
0.23095	0.00000	4715.07300
0.23478	0.00000	4715.07300
0.23862	0.00000	4715.07300
0.24246	0.00000	4715.07300
0.24629	0.00000	4715.07300
0.25012	0.00000	4715.07300
0.25396	0.00000	4701.28600
0.25779	0.00000	4701.28600
0.26162	0.00000	4701.28600
0.26546	0.00000	4701.28600
0.26930	0.00000	4701.28600
0.27313	0.00000	4732.14200
0.27697	0.00000	4732.14200
0.28079	0.00000	4732.14200
0.28460	0.00000	4732.14200
0.28845	0.00000	4732.14200
0.29228	0.00000	4732.14200
0.29612	0.00000	4723.77200
0.29996	0.00000	4723.77200
0.30380	0.00000	4723.77200
0.30764	0.00000	4723.77200
0.31148	0.00000	4723.77200
0.31531	0.00000	4723.77200
0.31914	0.00000	4726.56200
0.32297	0.00000	4726.56200
0.32681	0.00000	4726.56200
0.33065	0.00000	4726.56200
0.33449	0.00000	4726.56200
0.33833	0.00000	4726.56200
0.34217	0.00000	4734.93300
0.34601	0.00000	4734.93300
0.34983	0.00000	4734.93300
0.35366	0.00000	4734.93300
0.35750	0.00000	4734.93300
0.36134	0.00000	4712.61200
0.36517	0.00000	4712.61200
0.36900	0.00000	4712.61200
0.37283	0.00000	4712.61200
0.37666	0.00000	4712.61200
0.38049	0.00000	4712.61200
0.38433	0.00000	4704.24100
0.38816	0.00000	4704.24100
0.39199	0.00000	4704.24100
0.39583	0.00000	4704.24100
0.39966	0.00000	4704.24100
0.40352	0.00000	4704.24100
0.40736	0.00000	4676.47000
0.41119	0.00000	4676.47000
0.41502	0.00000	4676.47000
0.41886	0.00000	4676.47000
0.42269	0.00000	4676.47000
0.42652	0.00000	4676.47000
0.43035	0.00000	4734.93300
0.43419	0.00000	4734.93300
0.43801	0.00000	4734.93300
0.44184	0.00000	4734.93300
0.44568	0.00000	4734.93300
0.44952	0.00000	4704.24100
0.45335	0.00000	4704.24100
0.45719	0.00000	4704.24100
0.46102	0.00000	4704.24100
0.46486	0.00000	4704.24100
0.46868	0.00000	4704.24100
0.47253	0.00000	4651.65400
0.47638	0.00000	4651.65400
0.48020	0.00000	4651.65400
0.48404	0.00000	4651.65400
0.48788	0.00000	4651.65400
0.49172	0.00000	4651.65400
0.49555	0.00000	4718.19200
0.49939	0.00000	4718.19200
0.50323	0.00000	4718.19200
0.50706	0.00000	4718.19200
0.51089	0.00000	4718.19200
0.51473	0.00000	4718.19200
0.51855	0.00000	4718.19200
0.52239	0.00000	4718.19200
0.52622	0.00000	4718.19200
0.53005	0.00000	4718.19200
0.53389	0.00000	4718.19200
0.53773	0.00000	4695.87000
0.54158	0.00000	4695.87000
0.54540	0.00000	4695.87000
0.54925	0.00000	4695.87000
0.55308	0.00000	4695.87000
0.55691	0.00000	4695.87000
0.56073	0.00000	4718.19200
0.56457	0.00000	4718.19200
0.56841	0.00000	4718.19200
0.57225	0.00000	4718.19200
0.57607	0.00000	4718.19200
0.57990	0.00000	4718.19200
0.58373	0.00000	4718.19200
0.58756	0.00000	4718.19200
0.59139	0.00000	4718.19200
0.59522	0.00000	4718.19200
0.59905	0.00000	4718.19200
0.60288	0.00000	4718.19200
0.60671	0.00000	4712.61200
0.61054	0.00000	4712.61200
0.61438	0.00000	4712.61200
0.61821	0.00000	4712.61200
0.62206	0.00000	4712.61200
0.62588	0.00000	4701.45100
0.62974	0.00000	4701.45100
0.63357	0.00000	4701.45100
0.63741	0.00000	4701.45100
0.64124	0.00000	4701.45100
0.64507	0.00000	4701.45100
0.64891	0.00000	4668.19800
0.65275	0.00000	4668.19800
0.65659	0.00000	4668.19800
0.66041	0.00000	4668.19800
0.66425	0.00000	4668.19800
0.66807	0.00000	4668.19800
0.67190	0.00000	4662.68300
0.67574	0.00000	4662.68300
0.67956	0.00000	4662.68300
0.68339	0.00000	4662.68300
0.68722	0.00000	4662.68300
0.69105	0.00000	4695.87000
0.69488	0.00000	4695.87000
0.69870	0.00000	4695.87000
0.70253	0.00000	4695.87000
0.70636	0.00000	4695.87000
0.71019	0.00000	4695.87000
0.71403	0.00000	4693.08000
0.71786	0.00000	4693.08000
0.72169	0.00000	4693.08000
0.72552	0.00000	4693.08000
0.72935	0.00000	4693.08000
0.73319	0.00000	4693.08000
0.73701	0.00000	4715.40200
0.74085	0.00000	4715.40200
0.74469	0.00000	4715.40200
0.74851	0.00000	4715.40200
0.75234	0.00000	4715.40200
0.75618	0.00000	4715.40200
0.76000	0.00000	4718.19200
0.76384	0.00000	4718.19200
0.76767	0.00000	4718.19200
0.77150	0.00000	4718.19200
0.77534	0.00000	4718.19200
0.77917	0.00000	4752.44700
0.78300	0.00000	4752.44700
0.78683	0.00000	4752.44700
0.79066	0.00000	4752.44700
0.79449	0.00000	4752.44700
0.79831	0.00000	4752.44700
0.80214	0.00000	4701.45100
0.80598	0.00000	4701.45100
0.80982	0.00000	4701.45100
0.81365	0.00000	4701.45100
0.81749	0.00000	4701.45100
0.82132	0.00000	4701.45100
0.82515	0.00000	4737.72300
0.82899	0.00000	4737.72300
0.83282	0.00000	4737.72300
0.83666	0.00000	4737.72300
0.84049	0.00000	4737.72300
0.84432	0.00000	4737.72300
0.84816	0.00000	4673.71300
0.85199	0.00000	4673.71300
0.85582	0.00000	4673.71300
0.85964	0.00000	4673.71300
0.86347	0.00000	4673.71300
0.86731	0.00000	4693.08000
0.87116	0.00000	4693.08000
0.87500	0.00000	4693.08000
0.87884	0.00000	4693.08000
0.88268	0.00000	4693.08000
0.88652	0.00000	4693.08000
0.89039	0.00000	4726.56200
0.89425	0.00000	4726.56200
0.89808	0.00000	4726.56200
0.90192	0.00000	4726.56200
0.90576	0.00000	4726.56200
0.90960	0.00000	4726.56200
0.91344	0.00000	4732.14200
0.91726	0.00000	4732.14200
0.92110	0.00000	4732.14200
0.92493	0.00000	4732.14200
0.92876	0.00000	4732.14200
0.93261	0.00000	4732.14200
0.93644	0.00000	4720.98200
0.94028	0.00000	4720.98200
0.94413	0.00000	4720.98200
0.94795	0.00000	4720.98200
0.95179	0.00000	4720.98200
0.95562	0.00000	4693.08000
0.95944	0.00000	4693.08000
0.96328	0.00000	4693.08000
0.96711	0.00000	4693.08000
0.97096	0.00000	4693.08000
0.97479	0.00000	4693.08000
0.97862	0.00000	4665.44100
0.98246	0.00000	4665.44100
0.98629	0.00000	4665.44100
0.99012	0.00000	4665.44100
0.99395	0.00000	4665.44100
0.99778	0.00000	4665.44100
1.00162	0.00000	4670.95500
1.00546	0.00000	4670.95500
1.00928	0.00000	4670.95500
1.01311	0.00000	4670.95500
1.01694	0.00000	4670.95500
1.02077	0.00000	4670.95500
1.02459	0.00000	4709.82100
1.02843	0.00000	4709.82100
1.03227	0.00000	4709.82100
1.03611	0.00000	4709.82100
1.03994	0.00000	4709.82100
1.04377	0.00000	4695.87000
1.04761	0.00000	4695.87000
1.05143	0.00000	4695.87000
1.05526	0.00000	4695.87000
1.05910	0.00000	4695.87000
1.06293	0.00000	4695.87000
1.06677	0.00000	4712.61200
1.07060	0.00000	4712.61200
1.07442	0.00000	4712.61200
1.07825	0.00000	4712.61200
1.08209	0.00000	4712.61200
1.08592	0.00000	4712.61200
1.08975	0.00000	4718.19200
1.09358	0.00000	4718.19200
1.09742	0.00000	4718.19200
1.10125	0.00000	4718.19200
1.10508	0.00000	4718.19200
1.10892	0.00000	4707.03100
1.11275	0.00000	4707.03100
1.11657	0.00000	4707.03100
1.12041	0.00000	4707.03100
1.12425	0.00000	4707.03100
1.12808	0.00000	4707.03100
1.13191	0.00000	4704.24100
1.13574	0.00000	4704.24100
1.13958	0.00000	4704.24100
1.14342	0.00000	4704.24100
1.14725	0.00000	4704.24100
1.15109	0.00000	4704.24100
1.15491	0.00000	4673.71300
1.15875	0.00000	4673.71300
1.16259	0.00000	4673.71300
1.16642	0.00000	4673.71300
1.17026	0.00000	4673.71300
1.17408	0.00000	4673.71300
1.17791	0.00000	4732.14200
1.18174	0.00000	4732.14200
1.18558	0.00000	4732.14200
1.18941	0.00000	4732.14200
1.19325	0.00000	4732.14200
1.19708	0.00000	4693.08000
1.20093	0.00000	4693.08000
1.20476	0.00000	4693.08000
1.20859	0.00000	4693.08000
1.21243	0.00000	4693.08000
1.21626	0.00000	4693.08000
1.22011	0.00000	4712.61200
1.22395	0.00000	4712.61200
1.22778	0.00000	4712.61200
1.23162	0.00000	4712.61200
1.23546	0.00000	4712.61200
1.23929	0.00000	4712.61200
1.24312	0.00000	4715.40200
1.24695	0.00000	4715.40200
1.25079	0.00000	4715.40200
1.25463	0.00000	4715.40200
1.25846	0.00000	4715.40200
1.26228	0.00000	4715.40200
1.26610	0.00000	4715.40200
1.26994	0.00000	4715.40200
1.27378	0.00000	4715.40200
1.27760	0.00000	4715.40200
1.28145	0.00000	4715.40200
1.28528	0.00000	4693.08000
1.28913	0.00000	4693.08000
1.29296	0.00000	4693.08000
1.29680	0.00000	4693.08000
1.30061	0.00000	4693.08000
1.30444	0.00000	4693.08000
1.30826	0.00000	4720.98200
1.31209	0.00000	4720.98200
1.31593	0.00000	4720.98200
1.31976	0.00000	4720.98200
1.32359	0.00000	4720.98200
1.32743	0.00000	4720.98200
1.33126	0.00000	4712.61200
1.33510	0.00000	4712.61200
1.33894	0.00000	4712.61200
1.34277	0.00000	4712.61200
1.34660	0.00000	4712.61200
1.35044	0.00000	4712.61200
1.35426	0.00000	4715.40200
1.35809	0.00000	4715.40200
1.36192	0.00000	4715.40200
1.36575	0.00000	4715.40200
1.36957	0.00000	4715.40200
1.37342	0.00000	4752.44700
1.37727	0.00000	4752.44700
1.38109	0.00000	4752.44700
1.38492	0.00000	4752.44700
1.38876	0.00000	4752.44700
1.39259	0.00000	4752.44700
1.39643	0.00000	4720.98200
1.40026	0.00000	4720.98200
1.40410	0.00000	4720.98200
1.40792	0.00000	4720.98200
1.41175	0.00000	4720.98200
1.41559	0.00000	4720.98200
1.41942	0.00000	4723.77200
1.42325	0.00000	4723.77200
1.42707	0.00000	4723.77200
1.43091	0.00000	4723.77200
1.43476	0.00000	4723.77200
1.43860	0.00000	4698.66000
1.44242	0.00000	4698.66000
1.44625	0.00000	4698.66000
1.45009	0.00000	4698.66000
1.45391	0.00000	4698.66000
1.45775	0.00000	4698.66000
1.46158	0.00000	4712.61200
1.46540	0.00000	4712.61200
1.46923	0.00000	4712.61200
1.47307	0.00000	4712.61200
1.47690	0.00000	4712.61200
1.48075	0.00000	4712.61200
1.48458	0.00000	4737.72300
1.48842	0.00000	4737.72300
1.49225	0.00000	4737.72300
1.49608	0.00000	4737.72300
1.49991	0.00000	4737.72300
1.50375	0.00000	4737.72300
1.50758	0.00000	4726.56200
1.51141	0.00000	4726.56200
1.51525	0.00000	4726.56200
1.51907	0.00000	4726.56200
1.52290	0.00000	4726.56200
1.52673	0.00000	4701.45100
1.53056	0.00000	4701.45100
1.53439	0.00000	4701.45100
1.53822	0.00000	4701.45100
1.54206	0.00000	4701.45100
1.54590	0.00000	4701.45100
1.54973	0.00000	4709.82100
1.55355	0.00000	4709.82100
1.55739	0.00000	4709.82100
1.56122	0.00000	4709.82100
1.56506	0.00000	4709.82100
1.56888	0.00000	4709.82100
1.57271	0.00000	4668.19800
1.57655	0.00000	4668.19800
1.58040	0.00000	4668.19800
1.58423	0.00000	4668.19800
1.58806	0.00000	4668.19800
1.59190	0.00000	4668.19800
1.59574	0.00000	4737.72300
1.59956	0.00000	4737.72300
1.60340	0.00000	4737.72300
1.60724	0.00000	4737.72300
1.61107	0.00000	4737.72300
1.61490	0.00000	4712.61200
1.61874	0.00000	4712.61200
1.62257	0.00000	4712.61200
1.62641	0.00000	4712.61200
1.63023	0.00000	4712.61200
1.63407	0.00000	4712.61200
1.63791	0.00000	4654.41100
1.64174	0.00000	4654.41100
1.64557	0.00000	4654.41100
1.64940	0.00000	4654.41100
1.65323	0.00000	4654.41100
1.65709	0.00000	4654.41100
1.66091	0.00000	4665.44100
1.66475	0.00000	4665.44100
1.66858	0.00000	4665.44100
1.67242	0.00000	4665.44100
1.67625	0.00000	4665.44100
1.68008	0.00000	4665.44100
1.68391	0.00000	4665.44100
1.68775	0.00000	4665.44100
1.69157	0.00000	4665.44100
1.69540	0.00000	4665.44100
1.69923	0.00000	4665.44100
1.70306	0.00000	4701.45100
1.70689	0.00000	4701.45100
1.71072	0.00000	4701.45100
1.71455	0.00000	4701.45100
1.71838	0.00000	4701.45100
1.72220	0.00000	4701.45100
1.72604	0.00000	4737.72300
1.72988	0.00000	4737.72300
1.73371	0.00000	4737.72300
1.73754	0.00000	4737.72300
1.74138	0.00000	4737.72300
1.74521	0.00000	4737.72300
1.74905	0.00000	4673.71300
1.75289	0.00000	4673.71300
1.75672	0.00000	4673.71300
1.76055	0.00000	4673.71300
1.76439	0.00000	4673.71300
1.76822	0.00000	4673.71300
1.77206	0.00000	4668.19800
1.77589	0.00000	4668.19800
1.77972	0.00000	4668.19800
1.78355	0.00000	4668.19800
1.78739	0.00000	4668.19800
1.79122	0.00000	4701.45100
1.79507	0.00000	4701.45100
1.79890	0.00000	4701.45100
1.80274	0.00000	4701.45100
1.80657	0.00000	4701.45100
1.81040	0.00000	4701.45100
1.81424	0.00000	4726.56200
1.81806	0.00000	4726.56200
1.82190	0.00000	4726.56200
1.82573	0.00000	4726.56200
1.82958	0.00000	4726.56200
1.83342	0.00000	4726.56200
1.83725	0.00000	4737.72300
1.84107	0.00000	4737.72300
1.84490	0.00000	4737.72300
1.84874	0.00000	4737.72300
1.85258	0.00000	4737.72300
1.85641	0.00000	4737.72300
1.86024	0.00000	4718.19200
1.86406	0.00000	4718.19200
1.86790	0.00000	4718.19200
1.87173	0.00000	4718.19200
1.87557	0.00000	4718.19200
1.87939	0.00000	4704.24100
1.88323	0.00000	4704.24100
1.88705	0.00000	4704.24100
1.89088	0.00000	4704.24100
1.89475	0.00000	4704.24100
1.89862	0.00000	4704.24100
1.90246	0.00000	4729.35200
1.90630	0.00000	4729.35200
1.91013	0.00000	4729.35200
1.91397	0.00000	4729.35200
1.91781	0.00000	4729.35200
1.92163	0.00000	4729.35200
1.92550	0.00000	4723.77200
1.92936	0.00000	4723.77200
1.93321	0.00000	4723.77200
1.93705	0.00000	4723.77200
1.94088	0.00000	4723.77200
1.94473	0.00000	4707.03100
1.94855	0.00000	4707.03100
1.95240	0.00000	4707.03100
1.95624	0.00000	4707.03100
1.96008	0.00000	4707.03100
1.96391	0.00000	4707.03100
1.96774	0.00000	4715.40200
1.97158	0.00000	4715.40200
1.97541	0.00000	4715.40200
1.97925	0.00000	4715.40200
1.98308	0.00000	4715.40200
1.98692	0.00000	4715.40200
1.99075	0.00000	4673.71300
1.99458	0.00000	4673.71300
1.99842	0.00000	4673.71300
2.00225	0.00000	4673.71300
2.00609	0.00000	4673.71300
2.00993	0.00000	4673.71300
2.01377	0.00000	4732.14200
2.01760	0.00000	4732.14200
2.02143	0.00000	4732.14200
2.02526	0.00000	4732.14200
2.02910	0.00000	4732.14200
2.03294	0.00000	4707.03100
2.03678	0.00000	4707.03100
2.04061	0.00000	4707.03100
2.04443	0.00000	4707.03100
2.04828	0.00000	4707.03100
2.05211	0.00000	4707.03100
2.05594	0.00000	4659.92600
2.05977	0.00000	4659.92600
2.06361	0.00000	4659.92600
2.06744	0.00000	4659.92600
2.07127	0.00000	4659.92600
2.07511	0.00000	4659.92600
2.07895	0.00000	4687.50000
2.08278	0.00000	4687.50000
2.08661	0.00000	4687.50000
2.09044	0.00000	4687.50000
2.09427	0.00000	4687.50000
2.09810	0.00000	4687.50000
2.10194	0.00000	4737.72300
2.10577	0.00000	4737.72300
2.10960	0.00000	4737.72300
2.11344	0.00000	4737.72300
2.11727	0.00000	4737.72300
2.12110	0.00000	4704.24100
2.12496	0.00000	4704.24100
2.12879	0.00000	4704.24100
2.13260	0.00000	4704.24100
2.13645	0.00000	4704.24100
2.14028	0.00000	4704.24100
2.14411	0.00000	4670.95500
2.14795	0.00000	4670.95500
2.15178	0.00000	4670.95500
2.15562	0.00000	4670.95500
2.15945	0.00000	4670.95500
2.16328	0.00000	4670.95500
2.16711	0.00000	4687.50000
2.17094	0.00000	4687.50000
2.17476	0.00000	4687.50000
2.17859	0.00000	4687.50000
2.18243	0.00000	4687.50000
2.18626	0.00000	4687.50000
2.19009	0.00000	4718.19200
2.19393	0.00000	4718.19200
2.19776	0.00000	4718.19200
2.20158	0.00000	4718.19200
2.20541	0.00000	4718.19200
2.20925	0.00000	4752.44700
2.21309	0.00000	4752.44700
2.21692	0.00000	4752.44700
2.22076	0.00000	4752.44700
2.22459	0.00000	4752.44700
2.22842	0.00000	4752.44700
2.23227	0.00000	4684.74200
2.23610	0.00000	4684.74200
2.23993	0.00000	4684.74200
2.24376	0.00000	4684.74200
2.24760	0.00000	4684.74200
2.25144	0.00000	4684.74200
2.25527	0.00000	4673.71300
2.25910	0.00000	4673.71300
2.26294	0.00000	4673.71300
2.26676	0.00000	4673.71300
2.27060	0.00000	4673.71300
2.27444	0.00000	4673.71300
2.27826	0.00000	4662.68300
2.28210	0.00000	4662.68300
2.28593	0.00000	4662.68300
2.28976	0.00000	4662.68300
2.29358	0.00000	4662.68300
2.29743	0.00000	4709.82100
2.30127	0.00000	4709.82100
2.30510	0.00000	4709.82100
2.30894	0.00000	4709.82100
2.31281	0.00000	4709.82100
2.31665	0.00000	4709.82100
2.32049	0.00000	4681.98500
2.32432	0.00000	4681.98500
2.32815	0.00000	4681.98500
2.33199	0.00000	4681.98500
2.33582	0.00000	4681.98500
2.33965	0.00000	4681.98500
2.34348	0.00000	4679.22800
2.34732	0.00000	4679.22800
2.35116	0.00000	4679.22800
2.35499	0.00000	4679.22800
2.35883	0.00000	4679.22800
2.36267	0.00000	4679.22800
2.36650	0.00000	4665.44100
2.37034	0.00000	4665.44100
2.37417	0.00000	4665.44100
2.37800	0.00000	4665.44100
2.38184	0.00000	4665.44100
2.38568	0.00000	4662.68300
2.38951	0.00000	4662.68300
2.39333	0.00000	4662.68300
2.39717	0.00000	4662.68300
2.40100	0.00000	4662.68300
2.40486	0.00000	4662.68300
2.40870	0.00000	4670.95500
2.41252	0.00000	4670.95500
2.41635	0.00000	4670.95500
2.42019	0.00000	4670.95500
2.42401	0.00000	4670.95500
2.42784	0.00000	4670.95500
2.43168	0.00000	4679.22800
2.43553	0.00000	4679.22800
2.43935	0.00000	4679.22800
2.44319	0.00000	4679.22800
2.44702	0.00000	4679.22800
2.45086	0.00000	4679.22800
2.45469	0.00000	4668.19800
2.45852	0.00000	4668.19800
2.46235	0.00000	4668.19800
2.46619	0.00000	4668.19800
2.47002	0.00000	4668.19800
2.47386	0.00000	4763.74200
2.47769	0.00000	4763.74200
2.48152	0.00000	4763.74200
2.48535	0.00000	4763.74200
2.48919	0.00000	4763.74200
2.49303	0.00000	4763.74200
2.49687	0.00000	4676.47000
2.50070	0.00000	4676.47000
2.50453	0.00000	4676.47000
2.50836	0.00000	4676.47000
2.51220	0.00000	4676.47000
2.51604	0.00000	4676.47000
2.51988	0.00000	4681.98500
2.52371	0.00000	4681.98500
2.52754	0.00000	4681.98500
2.53138	0.00000	4681.98500
2.53520	0.00000	4681.98500
2.53904	0.00000	4659.92600
2.54286	0.00000	4659.92600
2.54669	0.00000	4659.92600
2.55053	0.00000	4659.92600
2.55437	0.00000	4659.92600
2.55821	0.00000	4659.92600
2.56204	0.00000	4665.44100
2.56587	0.00000	4665.44100
2.56970	0.00000	4665.44100
2.57354	0.00000	4665.44100
2.57737	0.00000	4665.44100
2.58120	0.00000	4665.44100
2.58504	0.00000	4679.22800
2.58889	0.00000	4679.22800
2.59272	0.00000	4679.22800
2.59655	0.00000	4679.22800
2.60039	0.00000	4679.22800
2.60422	0.00000	4679.22800
2.60805	0.00000	4673.71300
2.61188	0.00000	4673.71300
2.61572	0.00000	4673.71300
2.61955	0.00000	4673.71300
2.62339	0.00000	4673.71300
2.62723	0.00000	4704.24100
2.63106	0.00000	4704.24100
2.63488	0.00000	4704.24100
2.63871	0.00000	4704.24100
2.64255	0.00000	4704.24100
2.64637	0.00000	4704.24100
2.65020	0.00000	4709.82100
2.65403	0.00000	4709.82100
2.65786	0.00000	4709.82100
2.66170	0.00000	4709.82100
2.66553	0.00000	4709.82100
2.66936	0.00000	4709.82100
2.67319	0.00000	4684.74200
2.67703	0.00000	4684.74200
2.68086	0.00000	4684.74200
2.68469	0.00000	4684.74200
2.68852	0.00000	4684.74200
2.69235	0.00000	4684.74200
2.69619	0.00000	4687.50000
2.70003	0.00000	4687.50000
2.70386	0.00000	4687.50000
2.70769	0.00000	4687.50000
2.71152	0.00000	4687.50000
2.71535	0.00000	4704.24100
2.71920	0.00000	4704.24100
2.72304	0.00000	4704.24100
2.72688	0.00000	4704.24100
2.73071	0.00000	4704.24100
2.73453	0.00000	4704.24100
2.73836	0.00000	4732.14200
2.74219	0.00000	4732.14200
2.74603	0.00000	4732.14200
2.74986	0.00000	4732.14200
2.75369	0.00000	4732.14200
2.75753	0.00000	4732.14200
2.76136	0.00000	4687.50000
2.76520	0.00000	4687.50000
2.76903	0.00000	4687.50000
2.77287	0.00000	4687.50000
2.77669	0.00000	4687.50000
2.78053	0.00000	4687.50000
2.78435	0.00000	4679.22800
2.78819	0.00000	4679.22800
2.79202	0.00000	4679.22800
2.79585	0.00000	4679.22800
2.79968	0.00000	4679.22800
2.80350	0.00000	4763.74200
2.80734	0.00000	4763.74200
2.81117	0.00000	4763.74200
2.81499	0.00000	4763.74200
2.81882	0.00000	4763.74200
2.82266	0.00000	4763.74200
2.82648	0.00000	4665.44100
2.83031	0.00000	4665.44100
2.83415	0.00000	4665.44100
2.83799	0.00000	4665.44100
2.84182	0.00000	4665.44100
2.84565	0.00000	4665.44100
2.84951	0.00000	4684.74200
2.85334	0.00000	4684.74200
2.85718	0.00000	4684.74200
2.86102	0.00000	4684.74200
2.86485	0.00000	4684.74200
2.86869	0.00000	4684.74200
2.87252	0.00000	4679.22800
2.87634	0.00000	4679.22800
2.88017	0.00000	4679.22800
2.88402	0.00000	4679.22800
2.88785	0.00000	4679.22800
2.89168	0.00000	4755.27100
2.89552	0.00000	4755.27100
2.89935	0.00000	4755.27100
2.90319	0.00000	4755.27100
2.90702	0.00000	4755.27100
2.91085	0.00000	4755.27100
2.91469	0.00000	4723.77200
2.91853	0.00000	4723.77200
2.92236	0.00000	4723.77200
2.92620	0.00000	4723.77200
2.93004	0.00000	4723.77200
2.93387	0.00000	4723.77200
2.93770	0.00000	4676.47000
2.94154	0.00000	4676.47000
2.94536	0.00000	4676.47000
2.94919	0.00000	4676.47000
2.95302	0.00000	4676.47000
2.95685	0.00000	4676.47000
2.96068	0.00000	4670.95500
2.96452	0.00000	4670.95500
2.96834	0.00000	4670.95500
2.97217	0.00000	4670.95500
2.97600	0.00000	4670.95500
2.97983	0.00000	4698.66000
2.98368	0.00000	4698.66000
2.98751	0.00000	4698.66000
2.99134	0.00000	4698.66000
2.99518	0.00000	4698.66000
2.99901	0.00000	4698.66000
3.00284	0.00000	4734.93300
3.00668	0.00000	4734.93300
3.01051	0.00000	4734.93300
3.01434	0.00000	4734.93300
3.01817	0.00000	4734.93300
3.02200	0.00000	4734.93300
3.02583	0.00000	4726.56200
3.02966	0.00000	4726.56200
3.03349	0.00000	4726.56200
3.03731	0.00000	4726.56200
3.04114	0.00000	4726.56200
3.04497	0.00000	4726.56200
3.04881	0.00000	4673.71300
3.05260	0.00000	4673.71300
3.05643	0.00000	4673.71300
3.06027	0.00000	4673.71300
3.06410	0.00000	4673.71300
3.06794	0.00000	4704.24100
3.07177	0.00000	4704.24100
3.07562	0.00000	4704.24100
3.07946	0.00000	4704.24100
3.08329	0.00000	4704.24100
3.08712	0.00000	4704.24100
3.09095	0.00000	4729.35200
3.09478	0.00000	4729.35200
3.09861	0.00000	4729.35200
3.10244	0.00000	4729.35200
3.10628	0.00000	4729.35200
3.11011	0.00000	4729.35200
3.11395	0.00000	4734.93300
3.11778	0.00000	4734.93300
3.12161	0.00000	4734.93300
3.12545	0.00000	4734.93300
3.12928	0.00000	4734.93300
3.13310	0.00000	4734.93300
3.13693	0.00000	4720.98200
3.14076	0.00000	4720.98200
3.14460	0.00000	4720.98200
3.14845	0.00000	4720.98200
3.15228	0.00000	4720.98200
3.15610	0.00000	4707.03100
3.15994	0.00000	4707.03100
3.16378	0.00000	4707.03100
3.16762	0.00000	4707.03100
3.17145	0.00000	4707.03100
3.17528	0.00000	4707.03100
3.17911	0.00000	4734.93300
3.18295	0.00000	4734.93300
3.18679	0.00000	4734.93300
3.19061	0.00000	4734.93300
3.19445	0.00000	4734.93300
3.19827	0.00000	4734.93300
3.20211	0.00000	4726.56200
3.20594	0.00000	4726.56200
3.20978	0.00000	4726.56200
3.21361	0.00000	4726.56200
3.21743	0.00000	4726.56200
3.22125	0.00000	4726.56200
3.22508	0.00000	4715.40200
3.22891	0.00000	4715.40200
3.23275	0.00000	4715.40200
3.23658	0.00000	4715.40200
3.24042	0.00000	4715.40200
3.24426	0.00000	4698.66000
3.24810	0.00000	4698.66000
3.25193	0.00000	4698.66000
3.25576	0.00000	4698.66000
3.25959	0.00000	4698.66000
3.26342	0.00000	4698.66000
3.26727	0.00000	4726.56200
3.27112	0.00000	4726.56200
3.27495	0.00000	4726.56200
3.27879	0.00000	4726.56200
3.28261	0.00000	4726.56200
3.28645	0.00000	4726.56200
3.29027	0.00000	4737.72300
3.29411	0.00000	4737.72300
3.29795	0.00000	4737.72300
3.30179	0.00000	4737.72300
3.30563	0.00000	4737.72300
3.30945	0.00000	4704.24100
3.31328	0.00000	4704.24100
3.31711	0.00000	4704.24100
3.32093	0.00000	4704.24100
3.32477	0.00000	4704.24100
3.32860	0.00000	4704.24100
3.33243	0.00000	4701.45100
3.33626	0.00000	4701.45100
3.34010	0.00000	4701.45100
3.34392	0.00000	4701.45100
3.34776	0.00000	4701.45100
3.35159	0.00000	4701.45100
3.35541	0.00000	4662.68300
3.35925	0.00000	4662.68300
3.36309	0.00000	4662.68300
3.36691	0.00000	4662.68300
3.37075	0.00000	4662.68300
3.37458	0.00000	4662.68300
3.37842	0.00000	4679.22800
3.38225	0.00000	4679.22800
3.38608	0.00000	4679.22800
3.38991	0.00000	4679.22800
3.39374	0.00000	4679.22800
3.39756	0.00000	4698.66000
3.40139	0.00000	4698.66000
3.40522	0.00000	4698.66000
3.40906	0.00000	4698.66000
3.41288	0.00000	4698.66000
3.41671	0.00000	4698.66000
3.42054	0.00000	4709.82100
3.42437	0.00000	4709.82100
3.42820	0.00000	4709.82100
3.43203	0.00000	4709.82100
3.43586	0.00000	4709.82100
3.43970	0.00000	4709.82100
3.44353	0.00000	4734.93300
3.44736	0.00000	4734.93300
3.45120	0.00000	4734.93300
3.45502	0.00000	4734.93300
3.45885	0.00000	4734.93300
3.46269	0.00000	4734.93300
3.46652	0.00000	4726.56200
3.47035	0.00000	4726.56200
3.47418	0.00000	4726.56200
3.47802	0.00000	4726.56200
3.48185	0.00000	4726.56200
3.48568	0.00000	4695.87000
3.48955	0.00000	4695.87000
3.49338	0.00000	4695.87000
3.49721	0.00000	4695.87000
3.50104	0.00000	4695.87000
3.50488	0.00000	4695.87000
3.50870	0.00000	4723.77200
3.51253	0.00000	4723.77200
3.51636	0.00000	4723.77200
3.52020	0.00000	4723.77200
3.52403	0.00000	4723.77200
3.52787	0.00000	4723.77200
3.53171	0.00000	4726.56200
3.53554	0.00000	4726.56200
3.53937	0.00000	4726.56200
3.54321	0.00000	4726.56200
3.54704	0.00000	4726.56200
3.55088	0.00000	4726.56200
3.55471	0.00000	4732.14200
3.55856	0.00000	4732.14200
3.56243	0.00000	4732.14200
3.56627	0.00000	4732.14200
3.57012	0.00000	4732.14200
3.57395	0.00000	4704.24100
3.57780	0.00000	4704.24100
3.58164	0.00000	4704.24100
3.58547	0.00000	4704.24100
3.58931	0.00000	4704.24100
3.59315	0.00000	4704.24100
3.59698	0.00000	4673.71300
3.60081	0.00000	4673.71300
3.60460	0.00000	4673.71300
3.60844	0.00000	4673.71300
3.61228	0.00000	4673.71300
3.61611	0.00000	4673.71300
3.61995	0.00000	4718.19200
3.62378	0.00000	4718.19200
3.62761	0.00000	4718.19200
3.63145	0.00000	4718.19200
3.63527	0.00000	4718.19200
3.63910	0.00000	4718.19200
3.64293	0.00000	4715.40200
3.64677	0.00000	4715.40200
3.65060	0.00000	4715.40200
3.65444	0.00000	4715.40200
3.65827	0.00000	4715.40200
3.66211	0.00000	4709.82100
3.66594	0.00000	4709.82100
3.66979	0.00000	4709.82100
3.67362	0.00000	4709.82100
3.67745	0.00000	4709.82100
3.68128	0.00000	4709.82100
3.68511	0.00000	4668.19800
3.68894	0.00000	4668.19800
3.69277	0.00000	4668.19800
3.69661	0.00000	4668.19800
3.70043	0.00000	4668.19800
3.70426	0.00000	4668.19800
3.70810	0.00000	4662.68300
3.71193	0.00000	4662.68300
3.71578	0.00000	4662.68300
3.71960	0.00000	4662.68300
3.72344	0.00000	4662.68300
3.72727	0.00000	4662.68300
3.73109	0.00000	4704.24100
3.73493	0.00000	4704.24100
3.73875	0.00000	4704.24100
3.74258	0.00000	4704.24100
3.74641	0.00000	4704.24100
3.75025	0.00000	4695.87000
3.75409	0.00000	4695.87000
3.75792	0.00000	4695.87000
3.76176	0.00000	4695.87000
3.76560	0.00000	4695.87000
3.76943	0.00000	4695.87000
3.77326	0.00000	4720.98200
3.77710	0.00000	4720.98200
3.78094	0.00000	4720.98200
3.78477	0.00000	4720.98200
3.78859	0.00000	4720.98200
3.79243	0.00000	4720.98200
3.79627	0.00000	4715.40200
3.80011	0.00000	4715.40200
3.80393	0.00000	4715.40200
3.80777	0.00000	4715.40200
3.81160	0.00000	4715.40200
3.81543	0.00000	4698.66000
3.81927	0.00000	4698.66000
3.82310	0.00000	4698.66000
3.82693	0.00000	4698.66000
3.83077	0.00000	4698.66000
3.83460	0.00000	4698.66000
3.83843	0.00000	4704.24100
3.84226	0.00000	4704.24100
3.84608	0.00000	4704.24100
3.84993	0.00000	4704.24100
3.85375	0.00000	4704.24100
3.85759	0.00000	4704.24100
3.86143	0.00000	4668.19800
3.86526	0.00000	4668.19800
3.86910	0.00000	4668.19800
3.87293	0.00000	4668.19800
3.87676	0.00000	4668.19800
3.88061	0.00000	4668.19800
3.88444	0.00000	4670.95500
3.88826	0.00000	4670.95500
3.89210	0.00000	4670.95500
3.89593	0.00000	4670.95500
3.89976	0.00000	4670.95500
3.90359	0.00000	4693.08000
3.90743	0.00000	4693.08000
3.91126	0.00000	4693.08000
3.91509	0.00000	4693.08000
3.91892	0.00000	4693.08000
3.92276	0.00000	4693.08000
3.92660	0.00000	4720.98200
3.93043	0.00000	4720.98200
3.93428	0.00000	4720.98200
3.93811	0.00000	4720.98200
3.94195	0.00000	4720.98200
3.94579	0.00000	4720.98200
3.94962	0.00000	4726.56200
3.95345	0.00000	4726.56200
3.95729	0.00000	4726.56200
3.96112	0.00000	4726.56200
3.96494	0.00000	4726.56200
3.96878	0.00000	4726.56200
3.97260	0.00000	4729.35200
3.97645	0.00000	4729.35200
3.98028	0.00000	4729.35200
3.98411	0.00000	4729.35200
3.98793	0.00000	4729.35200
3.99176	0.00000	4704.24100
3.99561	0.00000	4704.24100
3.99945	0.00000	4704.24100
4.00328	0.00000	4704.24100
4.00711	0.00000	4704.24100
4.01093	0.00000	4704.24100
4.01476	0.00000	4715.40200
4.01859	0.00000	4715.40200
4.02243	0.00000	4715.40200
4.02628	0.00000	4715.40200
4.03016	0.00000	4715.40200
4.03401	0.00000	4715.40200
4.03785	0.00000	4734.93300
4.04169	0.00000	4734.93300
4.04552	0.00000	4734.93300
4.04936	0.00000	4734.93300
4.05320	0.00000	4734.93300
4.05704	0.00000	4734.93300
4.06088	0.00000	4715.40200
4.06471	0.00000	4715.40200
4.06855	0.00000	4715.40200
4.07239	0.00000	4715.40200
4.07623	0.00000	4715.40200
4.08006	0.00000	4743.97500
4.08389	0.00000	4743.97500
4.08773	0.00000	4743.97500
4.09157	0.00000	4743.97500
4.09540	0.00000	4743.97500
4.09924	0.00000	4743.97500
4.10307	0.00000	4720.98200
4.10690	0.00000	4720.98200
4.11073	0.00000	4720.98200
4.11456	0.00000	4720.98200
4.11839	0.00000	4720.98200
4.12222	0.00000	4720.98200
4.12606	0.00000	4670.95500
4.12989	0.00000	4670.95500
4.13372	0.00000	4670.95500
4.13755	0.00000	4670.95500
4.14138	0.00000	4670.95500
4.14522	0.00000	4684.70900
4.14905	0.00000	4684.70900
4.15288	0.00000	4684.70900
4.15671	0.00000	4684.70900
4.16053	0.00000	4684.70900
4.16436	0.00000	4684.70900
4.16819	0.00000	4693.08000
4.17202	0.00000	4693.08000
4.17586	0.00000	4693.08000
4.17970	0.00000	4693.08000
4.18354	0.00000	4693.08000
4.18737	0.00000	4693.08000
4.19120	0.00000	4668.19800
4.19504	0.00000	4668.19800
4.19886	0.00000	4668.19800
4.20269	0.00000	4668.19800
4.20653	0.00000	4668.19800
4.21036	0.00000	4668.19800
4.21419	0.00000	4657.16900
4.21802	0.00000	4657.16900
4.22185	0.00000	4657.16900
4.22569	0.00000	4657.16900
4.22952	0.00000	4657.16900
4.23335	0.00000	4690.29000
4.23719	0.00000	4690.29000
4.24102	0.00000	4690.29000
4.24484	0.00000	4690.29000
4.24867	0.00000	4690.29000
4.25251	0.00000	4690.29000
4.25633	0.00000	4712.61200
4.26017	0.00000	4712.61200
4.26401	0.00000	4712.61200
4.26784	0.00000	4712.61200
4.27168	0.00000	4712.61200
4.27551	0.00000	4712.61200
4.27934	0.00000	4718.19200
4.28317	0.00000	4718.19200
4.28700	0.00000	4718.19200
4.29084	0.00000	4718.19200
4.29467	0.00000	4718.19200
4.29850	0.00000	4718.19200
4.30233	0.00000	4726.56200
4.30615	0.00000	4726.56200
4.30999	0.00000	4726.56200
4.31383	0.00000	4726.56200
4.31767	0.00000	4726.56200
4.32149	0.00000	4695.87000
4.32533	0.00000	4695.87000
4.32916	0.00000	4695.87000
4.33299	0.00000	4695.87000
4.33683	0.00000	4695.87000
4.34066	0.00000	4695.87000
4.34449	0.00000	4665.44100
4.34832	0.00000	4665.44100
4.35215	0.00000	4665.44100
4.35599	0.00000	4665.44100
4.35982	0.00000	4665.44100
4.36366	0.00000	4665.44100
4.36749	0.00000	4673.71300
4.37133	0.00000	4673.71300
4.37517	0.00000	4673.71300
4.37901	0.00000	4673.71300
4.38284	0.00000	4673.71300
4.38667	0.00000	4673.71300
4.39050	0.00000	4712.61200
4.39433	0.00000	4712.61200
4.39816	0.00000	4712.61200
4.40199	0.00000	4712.61200
4.40582	0.00000	4712.61200
4.40965	0.00000	4749.62300
4.41347	0.00000	4749.62300
4.41731	0.00000	4749.62300
4.42114	0.00000	4749.62300
4.42498	0.00000	4749.62300
4.42882	0.00000	4749.62300
4.43260	0.00000	4718.19200
4.43644	0.00000	4718.19200
4.44027	0.00000	4718.19200
4.44410	0.00000	4718.19200
4.44794	0.00000	4718.19200
4.45177	0.00000	4718.19200
4.45560	0.00000	4723.77200
4.45944	0.00000	4723.77200
4.46327	0.00000	4723.77200
4.46710	0.00000	4723.77200
4.47093	0.00000	4723.77200
4.47478	0.00000	4723.77200
4.47860	0.00000	4715.40200
4.48243	0.00000	4715.40200
4.48626	0.00000	4715.40200
4.49009	0.00000	4715.40200
4.49393	0.00000	4715.40200
4.49777	0.00000	4709.82100
4.50161	0.00000	4709.82100
4.50544	0.00000	4709.82100
4.50927	0.00000	4709.82100
4.51312	0.00000	4709.82100
4.51696	0.00000	4709.82100
4.52079	0.00000	4723.77200
4.52461	0.00000	4723.77200
4.52843	0.00000	4723.77200
4.53227	0.00000	4723.77200
4.53610	0.00000	4723.77200
4.53995	0.00000	4723.77200
4.54377	0.00000	4715.40200
4.54760	0.00000	4715.40200
4.55144	0.00000	4715.40200
4.55527	0.00000	4715.40200
4.55910	0.00000	4715.40200
4.56293	0.00000	4707.03100
4.56676	0.00000	4707.03100
4.57059	0.00000	4707.03100
4.57441	0.00000	4707.03100
4.57825	0.00000	4707.03100
4.58209	0.00000	4707.03100
4.58593	0.00000	4698.66000
4.58976	0.00000	4698.66000
4.59359	0.00000	4698.66000
4.59743	0.00000	4698.66000
4.60126	0.00000	4698.66000
4.60509	0.00000	4698.66000
4.60892	0.00000	4673.71300
4.61275	0.00000	4673.71300
4.61659	0.00000	4673.71300
4.62042	0.00000	4673.71300
4.62426	0.00000	4673.71300
4.62809	0.00000	4673.71300
4.63192	0.00000	4684.74200
4.63574	0.00000	4684.74200
4.63958	0.00000	4684.74200
4.64341	0.00000	4684.74200
4.64723	0.00000	4684.74200
4.65106	0.00000	4746.80000
4.65488	0.00000	4746.80000
4.65871	0.00000	4746.80000
4.66254	0.00000	4746.80000
4.66637	0.00000	4746.80000
4.67021	0.00000	4746.80000
4.67403	0.00000	4709.82100
4.67787	0.00000	4709.82100
4.68170	0.00000	4709.82100
4.68554	0.00000	4709.82100
4.68937	0.00000	4709.82100
4.69320	0.00000	4709.82100
4.69703	0.00000	4726.56200
4.70086	0.00000	4726.56200
4.70470	0.00000	4726.56200
4.70852	0.00000	4726.56200
4.71235	0.00000	4726.56200
4.71618	0.00000	4726.56200
4.72002	0.00000	4726.56200
4.72385	0.00000	4726.56200
4.72768	0.00000	4726.56200
4.73151	0.00000	4726.56200
4.73535	0.00000	4726.56200
4.73917	0.00000	4707.03100
4.74302	0.00000	4707.03100
4.74686	0.00000	4707.03100
4.75070	0.00000	4707.03100
4.75453	0.00000	4707.03100
4.75838	0.00000	4707.03100
4.76221	0.00000	4723.77200
4.76605	0.00000	4723.77200
4.76989	0.00000	4723.77200
4.77373	0.00000	4723.77200
4.77757	0.00000	4723.77200
4.78141	0.00000	4723.77200
4.78525	0.00000	4732.14200
4.78909	0.00000	4732.14200
4.79293	0.00000	4732.14200
4.79676	0.00000	4732.14200
4.80059	0.00000	4732.14200
4.80442	0.00000	4732.14200
4.80825	0.00000	4732.14200
4.81209	0.00000	4732.14200
4.81592	0.00000	4732.14200
4.81975	0.00000	4732.14200
4.82358	0.00000	4732.14200
4.82741	0.00000	4698.66000
4.83125	0.00000	4698.66000
4.83508	0.00000	4698.66000
4.83891	0.00000	4698.66000
4.84275	0.00000	4698.66000
4.84659	0.00000	4698.66000
4.85043	0.00000	4737.72300
4.85426	0.00000	4737.72300
4.85809	0.00000	4737.72300
4.86192	0.00000	4737.72300
4.86576	0.00000	4737.72300
4.86960	0.00000	4737.72300
4.87343	0.00000	4729.35200
4.87726	0.00000	4729.35200
4.88110	0.00000	4729.35200
4.88493	0.00000	4729.35200
4.88880	0.00000	4729.35200
4.89261	0.00000	4729.35200
4.89643	0.00000	4726.56200
4.90028	0.00000	4726.56200
4.90412	0.00000	4726.56200
4.90795	0.00000	4726.56200
4.91179	0.00000	4726.56200
4.91562	0.00000	4698.66000
4.91947	0.00000	4698.66000
4.92331	0.00000	4698.66000
4.92715	0.00000	4698.66000
4.93099	0.00000	4698.66000
4.93482	0.00000	4698.66000
4.93865	0.00000	4734.93300
4.94249	0.00000	4734.93300
4.94632	0.00000	4734.93300
4.95015	0.00000	4734.93300
4.95399	0.00000	4734.93300
4.95782	0.00000	4734.93300
4.96166	0.00000	4746.09400
4.96549	0.00000	4746.09400
4.96933	0.00000	4746.09400
4.97316	0.00000	4746.09400
4.97699	0.00000	4746.09400
4.98083	0.00000	4746.09400
4.98460	0.00000	4720.98200
4.98843	0.00000	4720.98200
4.99226	0.00000	4720.98200
4.99611	0.00000	4720.98200
4.99996	0.00000	4720.98200
5.00438	0.00000	4704.24100
5.00825	0.00000	4704.24100
5.01211	0.00000	4704.24100
5.01596	0.00000	4704.24100
5.01980	0.00000	4704.24100
5.02364	0.00000	4704.24100
5.02750	0.00000	4765.62500
5.03135	0.00000	4765.62500
5.03530	0.00000	4765.62500
5.03917	0.00000	4765.62500
5.04304	0.00000	4765.62500
5.04691	0.00000	4765.62500
5.05077	0.00000	4761.08300
5.05462	0.00000	4761.08300
5.05846	0.00000	4761.08300
5.06229	0.00000	4761.08300
5.06614	0.00000	4761.08300
5.06998	0.00000	4807.41200
5.07381	0.00000	4807.41200
5.07766	0.00000	4807.41200
5.08150	0.00000	4807.41200
5.08533	0.00000	4807.41200
5.08917	0.00000	4807.41200
5.09302	0.00000	4841.05600
5.09686	0.00000	4841.05600
5.10069	0.00000	4841.05600
5.10452	0.00000	4841.05600
5.10836	0.00000	4841.05600
5.11220	0.00000	4841.05600
5.11603	0.00000	4903.01700
5.11990	0.00000	4903.01700
5.12373	0.00000	4903.01700
5.12757	0.00000	4903.01700
5.13139	0.00000	4903.01700
5.13523	0.00000	4903.01700
5.13907	0.00000	4913.88500
5.14293	0.00000	4913.88500
5.14676	0.00000	4913.88500
5.15059	0.00000	4913.88500
5.15443	0.00000	4913.88500
5.15827	0.00000	4913.88500
5.16210	0.00000	4895.54000
5.16594	0.00000	4895.54000
5.16978	0.00000	4895.54000
5.17362	0.00000	4895.54000
5.17746	0.00000	4895.54000
5.18129	0.00000	4895.54000
5.18513	0.00000	4927.14200
5.18897	0.00000	4927.14200
5.19281	0.00000	4927.14200
5.19661	0.00000	4927.14200
5.20046	0.00000	4927.14200
5.20430	0.00000	4927.14200
5.20813	0.00000	4945.57500
5.21196	0.00000	4945.57500
5.21579	0.00000	4945.57500
5.21962	0.00000	4945.57500
5.22345	0.00000	4945.57500
5.22730	0.00000	4945.57500
5.23113	0.00000	4945.57500
5.23495	0.00000	4982.44400
5.23878	0.00000	4982.44400
5.24261	0.00000	4982.44400
5.24645	0.00000	4982.44400
5.25029	0.00000	4982.44400
5.25412	0.00000	4982.44400
5.25795	0.00000	4945.31200
5.26178	0.00000	4945.31200
5.26561	0.00000	4945.31200
5.26945	0.00000	4945.31200
5.27329	0.00000	4945.31200
5.27712	0.00000	4945.31200
5.28095	0.00000	4960.93700
5.28478	0.00000	4960.93700
5.28860	0.00000	4960.93700
5.29244	0.00000	4960.93700
5.29627	0.00000	4960.93700
5.30010	0.00000	4960.93700
5.30394	0.00000	4992.18700
5.30778	0.00000	4992.18700
5.31162	0.00000	4992.18700
5.31546	0.00000	4992.18700
5.31929	0.00000	4992.18700
5.32313	0.00000	4992.18700
5.32696	0.00000	4984.37500
5.33079	0.00000	4984.37500
5.33462	0.00000	4984.37500
5.33845	0.00000	4984.37500
5.34229	0.00000	4984.37500
5.34611	0.00000	4984.37500
5.34994	0.00000	4992.18700
5.35377	0.00000	4992.18700
5.35760	0.00000	4992.18700
5.36144	0.00000	4992.18700
5.36528	0.00000	4992.18700
5.36911	0.00000	4992.18700
5.37294	0.00000	4994.79100
5.37680	0.00000	4994.79100
5.38061	0.00000	4994.79100
5.38445	0.00000	4994.79100
5.38828	0.00000	4994.79100
5.39210	0.00000	4994.79100
5.39594	0.00000	5010.41600
5.39977	0.00000	5010.41600
5.40360	0.00000	5010.41600
5.40744	0.00000	5010.41600
5.41128	0.00000	5010.41600
5.41512	0.00000	5010.41600
5.41895	0.00000	5010.41600
5.42279	0.00000	5015.62500
5.42663	0.00000	5015.62500
5.43047	0.00000	5015.62500
5.43430	0.00000	5015.62500
5.43815	0.00000	5015.62500
5.44198	0.00000	5015.62500
5.44582	0.00000	5015.62500
5.44966	0.00000	5015.62500
5.45350	0.00000	5015.62500
5.45733	0.00000	5015.62500
5.46117	0.00000	5015.62500
5.46500	0.00000	5015.62500
5.46883	0.00000	5018.22900
5.47267	0.00000	5018.22900
5.47651	0.00000	5018.22900
5.48034	0.00000	5018.22900
5.48416	0.00000	5018.22900
5.48799	0.00000	5018.22900
5.49183	0.00000	4963.08400
5.49567	0.00000	4963.08400
5.49950	0.00000	4963.08400
5.50335	0.00000	4963.08400
5.50718	0.00000	4963.08400
5.51102	0.00000	4963.08400
5.51485	0.00000	4968.23500
5.51869	0.00000	4968.23500
5.52251	0.00000	4968.23500
5.52635	0.00000	4968.23500
5.53019	0.00000	4968.23500
5.53401	0.00000	4968.23500
5.53785	0.00000	4973.38500
5.54171	0.00000	4973.38500
5.54554	0.00000	4973.38500
5.54938	0.00000	4973.38500
5.55322	0.00000	4973.38500
5.55704	0.00000	4973.38500
5.56087	0.00000	4970.81000
5.56470	0.00000	4970.81000
5.56854	0.00000	4970.81000
5.57240	0.00000	4970.81000
5.57624	0.00000	4970.81000
5.58006	0.00000	4970.81000
5.58389	0.00000	4970.81000
5.58772	0.00000	5031.25000
5.59156	0.00000	5031.25000
5.59540	0.00000	5031.25000
5.59924	0.00000	5031.25000
5.60307	0.00000	5031.25000
5.60690	0.00000	5031.25000
5.61074	0.00000	5033.85400
5.61456	0.00000	5033.85400
5.61840	0.00000	5033.85400
5.62223	0.00000	5033.85400
5.62607	0.00000	5033.85400
5.62991	0.00000	5033.85400
5.63375	0.00000	4970.81000
5.63759	0.00000	4970.81000
5.64141	0.00000	4970.81000
5.64524	0.00000	4970.81000
5.64907	0.00000	4970.81000
5.65291	0.00000	4970.81000
5.65675	0.00000	4975.96200
5.66058	0.00000	4975.96200
5.66442	0.00000	4975.96200
5.66825	0.00000	4975.96200
5.67208	0.00000	4975.96200
5.67591	0.00000	4975.96200
5.67974	0.00000	4978.53700
5.68357	0.00000	4978.53700
5.68741	0.00000	4978.53700
5.69125	0.00000	4978.53700
5.69509	0.00000	4978.53700
5.69892	0.00000	4978.53700
5.70276	0.00000	5031.25000
5.70660	0.00000	5031.25000
5.71044	0.00000	5031.25000
5.71428	0.00000	5031.25000
5.71812	0.00000	5031.25000
5.72195	0.00000	5031.25000
5.72578	0.00000	5031.25000
5.72961	0.00000	4981.11200
5.73345	0.00000	4981.11200
5.73729	0.00000	4981.11200
5.74113	0.00000	4981.11200
5.74496	0.00000	4981.11200
5.74880	0.00000	4981.11200
5.75260	0.00000	4973.38500
5.75644	0.00000	4973.38500
5.76027	0.00000	4973.38500
5.76410	0.00000	4973.38500
5.76793	0.00000	4973.38500
5.77176	0.00000	4973.38500
5.77560	0.00000	4978.53700
5.77943	0.00000	4978.53700
5.78327	0.00000	4978.53700
5.78710	0.00000	4978.53700
5.79093	0.00000	4978.53700
5.79476	0.00000	4978.53700
5.79860	0.00000	5033.85400
5.80243	0.00000	5033.85400
5.80627	0.00000	5033.85400
5.81011	0.00000	5033.85400
5.81394	0.00000	5033.85400
5.81777	0.00000	5033.85400
5.82159	0.00000	5031.25000
5.82543	0.00000	5031.25000
5.82927	0.00000	5031.25000
5.83311	0.00000	5031.25000
5.83695	0.00000	5031.25000
5.84079	0.00000	5031.25000
5.84460	0.00000	5033.85400
5.84847	0.00000	5033.85400
5.85230	0.00000	5033.85400
5.85614	0.00000	5033.85400
5.85997	0.00000	5033.85400
5.86381	0.00000	5033.85400
5.86764	0.00000	5033.85400
5.87148	0.00000	4993.99000
5.87531	0.00000	4993.99000
5.87914	0.00000	4993.99000
5.88297	0.00000	4993.99000
5.88681	0.00000	4993.99000
5.89065	0.00000	4993.99000
5.89449	0.00000	5039.06200
5.89833	0.00000	5039.06200
5.90217	0.00000	5039.06200
5.90600	0.00000	5039.06200
5.90983	0.00000	5039.06200
5.91366	0.00000	5039.06200
5.91749	0.00000	5033.85400
5.92132	0.00000	5033.85400
5.92516	0.00000	5033.85400
5.92900	0.00000	5033.85400
5.93286	0.00000	5033.85400
5.93669	0.00000	5033.85400
5.94052	0.00000	4981.11200
5.94435	0.00000	4981.11200
5.94818	0.00000	4981.11200
5.95203	0.00000	4981.11200
5.95587	0.00000	4981.11200
5.95970	0.00000	4981.11200
5.96353	0.00000	4986.26300
5.96736	0.00000	4986.26300
5.97119	0.00000	4986.26300
5.97502	0.00000	4986.26300
5.97887	0.00000	4986.26300
5.98270	0.00000	4986.26300
5.98653	0.00000	5036.45800
5.99038	0.00000	5036.45800
5.99422	0.00000	5036.45800
5.99805	0.00000	5036.45800
6.00189	0.00000	5036.45800
6.00572	0.00000	5036.45800
6.00955	0.00000	4993.99000
6.01338	0.00000	4993.99000
6.01721	0.00000	4993.99000
6.02104	0.00000	4993.99000
6.02488	0.00000	4993.99000
6.02871	0.00000	4993.99000
6.03254	0.00000	4993.99000
6.03639	0.00000	4988.83900
6.04023	0.00000	4988.83900
6.04406	0.00000	4988.83900
6.04790	0.00000	4988.83900
6.05173	0.00000	4988.83900
6.05557	0.00000	4988.83900
6.05939	0.00000	5036.45800
6.06322	0.00000	5036.45800
6.06706	0.00000	5036.45800
6.07089	0.00000	5036.45800
6.07473	0.00000	5036.45800
6.07857	0.00000	5036.45800
6.08240	0.00000	4983.68800
6.08623	0.00000	4983.68800
6.09006	0.00000	4983.68800
6.09390	0.00000	4983.68800
6.09776	0.00000	4983.68800
6.10160	0.00000	4983.68800
6.10543	0.00000	4978.53700
6.10926	0.00000	4978.53700
6.11310	0.00000	4978.53700
6.11694	0.00000	4978.53700
6.12078	0.00000	4978.53700
6.12460	0.00000	4978.53700
6.12844	0.00000	4981.11200
6.13228	0.00000	4981.11200
6.13612	0.00000	4981.11200
6.13995	0.00000	4981.11200
6.14378	0.00000	4981.11200
6.14762	0.00000	4981.11200
6.15145	0.00000	5036.45800
6.15528	0.00000	5036.45800
6.15912	0.00000	5036.45800
6.16296	0.00000	5036.45800
6.16679	0.00000	5036.45800
6.17062	0.00000	5036.45800
6.17445	0.00000	5036.45800
6.17828	0.00000	4986.26300
6.18212	0.00000	4986.26300
6.18596	0.00000	4986.26300
6.18980	0.00000	4986.26300
6.19364	0.00000	4986.26300
6.19747	0.00000	4986.26300
6.20129	0.00000	4981.11200
6.20512	0.00000	4981.11200
6.20895	0.00000	4981.11200
6.21279	0.00000	4981.11200
6.21660	0.00000	4981.11200
6.22044	0.00000	4981.11200
6.22427	0.00000	5039.06200
6.22810	0.00000	5039.06200
6.23193	0.00000	5039.06200
6.23577	0.00000	5039.06200
6.23961	0.00000	5039.06200
6.24345	0.00000	5039.06200
6.24729	0.00000	5044.27100
6.25113	0.00000	5044.27100
6.25496	0.00000	5044.27100
6.25879	0.00000	5044.27100
6.26264	0.00000	5044.27100
6.26648	0.00000	5044.27100
6.27031	0.00000	4983.68800
6.27416	0.00000	4983.68800
6.27801	0.00000	4983.68800
6.28184	0.00000	4983.68800
6.28567	0.00000	4983.68800
6.28951	0.00000	4983.68800
6.29335	0.00000	4988.83900
6.29718	0.00000	4988.83900
6.30102	0.00000	4988.83900
6.30486	0.00000	4988.83900
6.30871	0.00000	4988.83900
6.31258	0.00000	4988.83900
6.31643	0.00000	4988.83900
6.32027	0.00000	5041.66600
6.32411	0.00000	5041.66600
6.32796	0.00000	5041.66600
6.33180	0.00000	5041.66600
6.33564	0.00000	5041.66600
6.33947	0.00000	5041.66600
6.34331	0.00000	4983.68800
6.34714	0.00000	4983.68800
6.35098	0.00000	4983.68800
6.35481	0.00000	4983.68800
6.35865	0.00000	4983.68800
6.36249	0.00000	4983.68800
6.36632	0.00000	4983.68800
6.37017	0.00000	4983.68800
6.37400	0.00000	4983.68800
6.37783	0.00000	4983.68800
6.38167	0.00000	4983.68800
6.38552	0.00000	4983.68800
6.38936	0.00000	5036.45800
6.39320	0.00000	5036.45800
6.39703	0.00000	5036.45800
6.40088	0.00000	5036.45800
6.40472	0.00000	5036.45800
6.40856	0.00000	5036.45800
6.41241	0.00000	5036.45800
6.41625	0.00000	5036.45800
6.42009	0.00000	5036.45800
6.42392	0.00000	5036.45800
6.42775	0.00000	5036.45800
6.43160	0.00000	5036.45800
6.43543	0.00000	4983.68800
6.43930	0.00000	4983.68800
6.44314	0.00000	4983.68800
6.44697	0.00000	4983.68800
6.45079	0.00000	4983.68800
6.45463	0.00000	4983.68800
6.45846	0.00000	4983.68800
6.46228	0.00000	4996.56600
6.46612	0.00000	4996.56600
6.46996	0.00000	4996.56600
6.47380	0.00000	4996.56600
6.47762	0.00000	4996.56600
6.48145	0.00000	4996.56600
6.48528	0.00000	5036.45800
6.48912	0.00000	5036.45800
6.49296	0.00000	5036.45800
6.49679	0.00000	5036.45800
6.50061	0.00000	5036.45800
6.50444	0.00000	5036.45800
6.50827	0.00000	4991.41500
6.51210	0.00000	4991.41500
6.51594	0.00000	4991.41500
6.51978	0.00000	4991.41500
6.52361	0.00000	4991.41500
6.52745	0.00000	4991.41500
6.53129	0.00000	4993.99000
6.53514	0.00000	4993.99000
6.53896	0.00000	4993.99000
6.54279	0.00000	4993.99000
6.54663	0.00000	4993.99000
6.55046	0.00000	4993.99000
6.55430	0.00000	5041.66600
6.55813	0.00000	5041.66600
6.56197	0.00000	5041.66600
6.56580	0.00000	5041.66600
6.56962	0.00000	5041.66600
6.57345	0.00000	5041.66600
6.57728	0.00000	4993.99000
6.58114	0.00000	4993.99000
6.58497	0.00000	4993.99000
6.58881	0.00000	4993.99000
6.59261	0.00000	4993.99000
6.59643	0.00000	4993.99000
6.60027	0.00000	4993.99000
6.60410	0.00000	5001.71700
6.60793	0.00000	5001.71700
6.61176	0.00000	5001.71700
6.61560	0.00000	5001.71700
6.61943	0.00000	5001.71700
6.62327	0.00000	5001.71700
6.62710	0.00000	4986.26300
6.63093	0.00000	4986.26300
6.63476	0.00000	4986.26300
6.63860	0.00000	4986.26300
6.64243	0.00000	4986.26300
6.64627	0.00000	4986.26300
6.65010	0.00000	4988.83900
6.65392	0.00000	4988.83900
6.65776	0.00000	4988.83900
6.66158	0.00000	4988.83900
6.66542	0.00000	4988.83900
6.66926	0.00000	4988.83900
6.67309	0.00000	5039.06200
6.67692	0.00000	5039.06200
6.68077	0.00000	5039.06200
6.68461	0.00000	5039.06200
6.68845	0.00000	5039.06200
6.69228	0.00000	5039.06200
6.69611	0.00000	5041.66600
6.69996	0.00000	5041.66600
6.70380	0.00000	5041.66600
6.70763	0.00000	5041.66600
6.71146	0.00000	5041.66600
6.71530	0.00000	5041.66600
6.71913	0.00000	4986.26300
6.72297	0.00000	4986.26300
6.72681	0.00000	4986.26300
6.73065	0.00000	4986.26300
6.73449	0.00000	4986.26300
6.73831	0.00000	4986.26300
6.74215	0.00000	4986.26300
6.74598	0.00000	4999.14100
6.74981	0.00000	4999.14100
6.75365	0.00000	4999.14100
6.75749	0.00000	4999.14100
6.76132	0.00000	4999.14100
6.76515	0.00000	4999.14100
6.76897	0.00000	4991.41500
6.77281	0.00000	4991.41500
6.77660	0.00000	4991.41500
6.78044	0.00000	4991.41500
6.78426	0.00000	4991.41500
6.78810	0.00000	4991.41500
6.79194	0.00000	4991.41500
6.79578	0.00000	4991.41500
6.79961	0.00000	4991.41500
6.80345	0.00000	4991.41500
6.80729	0.00000	4991.41500
6.81114	0.00000	4991.41500
6.81497	0.00000	5044.27100
6.81881	0.00000	5044.27100
6.82264	0.00000	5044.27100
6.82649	0.00000	5044.27100
6.83032	0.00000	5044.27100
6.83415	0.00000	5044.27100
6.83799	0.00000	4991.41500
6.84182	0.00000	4991.41500
6.84566	0.00000	4991.41500
6.84949	0.00000	4991.41500
6.85332	0.00000	4991.41500
6.85715	0.00000	4991.41500
6.86099	0.00000	4993.99000
6.86483	0.00000	4993.99000
6.86868	0.00000	4993.99000
6.87251	0.00000	4993.99000
6.87635	0.00000	4993.99000
6.88018	0.00000	4993.99000
6.88404	0.00000	5049.47900
6.88800	0.00000	5049.47900
6.89187	0.00000	5049.47900
6.89572	0.00000	5049.47900
6.89956	0.00000	5049.47900
6.90340	0.00000	5049.47900
6.90723	0.00000	5049.47900
6.91107	0.00000	5004.29200
6.91491	0.00000	5004.29200
6.91876	0.00000	5004.29200
6.92259	0.00000	5004.29200
6.92643	0.00000	5004.29200
6.93027	0.00000	5004.29200
6.93410	0.00000	5046.87500
6.93793	0.00000	5046.87500
6.94177	0.00000	5046.87500
6.94560	0.00000	5046.87500
6.94944	0.00000	5046.87500
6.95327	0.00000	5046.87500
6.95711	0.00000	4993.99000
6.96094	0.00000	4993.99000
6.96477	0.00000	4993.99000
6.96860	0.00000	4993.99000
6.97244	0.00000	4993.99000
6.97627	0.00000	4993.99000
6.98010	0.00000	4991.41500
6.98395	0.00000	4991.41500
6.98787	0.00000	4991.41500
6.99172	0.00000	4991.41500
6.99558	0.00000	4991.41500
6.99942	0.00000	4991.41500
7.00327	0.00000	5046.87500
7.00711	0.00000	5046.87500
7.01094	0.00000	5046.87500
7.01477	0.00000	5046.87500
7.01861	0.00000	5046.87500
7.02245	0.00000	5046.87500
7.02629	0.00000	4993.99000
7.03011	0.00000	4993.99000
7.03394	0.00000	4993.99000
7.03778	0.00000	4993.99000
7.04161	0.00000	4993.99000
7.04545	0.00000	4993.99000
7.04928	0.00000	4993.99000
7.05312	0.00000	4999.14100
7.05696	0.00000	4999.14100
7.06079	0.00000	4999.14100
7.06460	0.00000	4999.14100
7.06844	0.00000	4999.14100
7.07227	0.00000	4999.14100
7.07611	0.00000	4993.99000
7.07994	0.00000	4993.99000
7.08377	0.00000	4993.99000
7.08761	0.00000	4993.99000
7.09145	0.00000	4993.99000
7.09528	0.00000	4993.99000
7.09912	0.00000	5001.71700
7.10295	0.00000	5001.71700
7.10679	0.00000	5001.71700
7.11063	0.00000	5001.71700
7.11446	0.00000	5001.71700
7.11830	0.00000	5001.71700
7.12213	0.00000	5049.47900
7.12596	0.00000	5049.47900
7.12980	0.00000	5049.47900
7.13364	0.00000	5049.47900
7.13747	0.00000	5049.47900
7.14131	0.00000	5049.47900
7.14514	0.00000	4991.41500
7.14899	0.00000	4991.41500
7.15282	0.00000	4991.41500
7.15666	0.00000	4991.41500
7.16050	0.00000	4991.41500
7.16434	0.00000	4991.41500
7.16817	0.00000	4988.83900
7.17201	0.00000	4988.83900
7.17585	0.00000	4988.83900
7.17967	0.00000	4988.83900
7.18350	0.00000	4988.83900
7.18736	0.00000	4988.83900
7.19119	0.00000	4988.83900
7.19503	0.00000	5001.71700
7.19886	0.00000	5001.71700
7.20270	0.00000	5001.71700
7.20654	0.00000	5001.71700
7.21037	0.00000	5001.71700
7.21420	0.00000	5001.71700
7.21804	0.00000	4988.83900
7.22189	0.00000	4988.83900
7.22572	0.00000	4988.83900
7.22956	0.00000	4988.83900
7.23338	0.00000	4988.83900
7.23721	0.00000	4988.83900
7.24104	0.00000	5044.27100
7.24488	0.00000	5044.27100
7.24871	0.00000	5044.27100
7.25255	0.00000	5044.27100
7.25638	0.00000	5044.27100
7.26021	0.00000	5044.27100
7.26404	0.00000	4993.99000
7.26788	0.00000	4993.99000
7.27171	0.00000	4993.99000
7.27555	0.00000	4993.99000
7.27938	0.00000	4993.99000
7.28322	0.00000	4993.99000
7.28705	0.00000	4988.83900
7.29089	0.00000	4988.83900
7.29472	0.00000	4988.83900
7.29855	0.00000	4988.83900
7.30239	0.00000	4988.83900
7.30623	0.00000	4988.83900
7.31007	0.00000	5046.87500
7.31390	0.00000	5046.87500
7.31774	0.00000	5046.87500
7.32156	0.00000	5046.87500
7.32541	0.00000	5046.87500
7.32924	0.00000	5046.87500
7.33309	0.00000	5046.87500
7.33692	0.00000	5001.71700
7.34076	0.00000	5001.71700
7.34458	0.00000	5001.71700
7.34843	0.00000	5001.71700
7.35225	0.00000	5001.71700
7.35608	0.00000	5001.71700
7.35991	0.00000	5049.47900
7.36376	0.00000	5049.47900
7.36760	0.00000	5049.47900
7.37144	0.00000	5049.47900
7.37526	0.00000	5049.47900
7.37909	0.00000	5049.47900
7.38293	0.00000	4991.41500
7.38677	0.00000	4991.41500
7.39060	0.00000	4991.41500
7.39443	0.00000	4991.41500
7.39827	0.00000	4991.41500
7.40212	0.00000	4991.41500
7.40596	0.00000	4988.83900
7.40979	0.00000	4988.83900
7.41363	0.00000	4988.83900
7.41748	0.00000	4988.83900
7.42132	0.00000	4988.83900
7.42516	0.00000	4988.83900
7.42899	0.00000	5044.27100
7.43282	0.00000	5044.27100
7.43666	0.00000	5044.27100
7.44048	0.00000	5044.27100
7.44432	0.00000	5044.27100
7.44816	0.00000	5044.27100
7.45199	0.00000	5046.87500
7.45582	0.00000	5046.87500
7.45964	0.00000	5046.87500
7.46347	0.00000	5046.87500
7.46730	0.00000	5046.87500
7.47114	0.00000	5046.87500
7.47497	0.00000	5046.87500
7.47881	0.00000	5001.71700
7.48264	0.00000	5001.71700
7.48647	0.00000	5001.71700
7.49031	0.00000	5001.71700
7.49414	0.00000	5001.71700
7.49797	0.00000	5001.71700
7.50181	0.00000	5052.08300
7.50565	0.00000	5052.08300
7.50949	0.00000	5052.08300
7.51332	0.00000	5052.08300
7.51715	0.00000	5052.08300
7.52097	0.00000	5052.08300
7.52481	0.00000	4991.41500
7.52860	0.00000	4991.41500
7.53244	0.00000	4991.41500
7.53627	0.00000	4991.41500
7.54011	0.00000	4991.41500
7.54394	0.00000	4991.41500
7.54777	0.00000	4978.53700
7.55161	0.00000	4978.53700
7.55544	0.00000	4978.53700
7.55927	0.00000	4978.53700
7.56311	0.00000	4978.53700
7.56695	0.00000	4978.53700
7.57079	0.00000	5036.45800
7.57463	0.00000	5036.45800
7.57846	0.00000	5036.45800
7.58229	0.00000	5036.45800
7.58611	0.00000	5036.45800
7.58994	0.00000	5036.45800
7.59378	0.00000	5036.45800
7.59763	0.00000	5036.45800
7.60146	0.00000	5036.45800
7.60531	0.00000	5036.45800
7.60914	0.00000	5036.45800
7.61298	0.00000	5036.45800
7.61681	0.00000	5036.45800
7.62061	0.00000	4996.56600
7.62445	0.00000	4996.56600
7.62829	0.00000	4996.56600
7.63212	0.00000	4996.56600
7.63595	0.00000	4996.56600
7.63978	0.00000	4996.56600
7.64361	0.00000	5041.66600
7.64744	0.00000	5041.66600
7.65127	0.00000	5041.66600
7.65510	0.00000	5041.66600
7.65894	0.00000	5041.66600
7.66278	0.00000	5041.66600
7.66662	0.00000	4991.41500
7.67045	0.00000	4991.41500
7.67429	0.00000	4991.41500
7.67811	0.00000	4991.41500
7.68195	0.00000	4991.41500
7.68584	0.00000	4991.41500
7.68969	0.00000	4988.83900
7.69352	0.00000	4988.83900
7.69737	0.00000	4988.83900
7.70120	0.00000	4988.83900
7.70503	0.00000	4988.83900
7.70887	0.00000	4988.83900
7.71272	0.00000	5044.27100
7.71656	0.00000	5044.27100
7.72041	0.00000	5044.27100
7.72424	0.00000	5044.27100
7.72808	0.00000	5044.27100
7.73192	0.00000	5044.27100
7.73578	0.00000	5039.06200
7.73962	0.00000	5039.06200
7.74347	0.00000	5039.06200
7.74729	0.00000	5039.06200
7.75112	0.00000	5039.06200
7.75495	0.00000	5039.06200
7.75880	0.00000	5039.06200
7.76263	0.00000	4993.99000
7.76647	0.00000	4993.99000
7.77030	0.00000	4993.99000
7.77414	0.00000	4993.99000
7.77797	0.00000	4993.99000
7.78180	0.00000	4993.99000
7.78564	0.00000	5044.27100
7.78947	0.00000	5044.27100
7.79332	0.00000	5044.27100
7.79715	0.00000	5044.27100
7.80098	0.00000	5044.27100
7.80482	0.00000	5044.27100
7.80865	0.00000	4991.41500
7.81249	0.00000	4991.41500
7.81632	0.00000	4991.41500
7.82016	0.00000	4991.41500
7.82399	0.00000	4991.41500
7.82785	0.00000	4991.41500
7.83168	0.00000	4991.41500
7.83551	0.00000	4991.41500
7.83934	0.00000	4991.41500
7.84318	0.00000	4991.41500
7.84701	0.00000	4991.41500
7.85085	0.00000	4991.41500
7.85468	0.00000	5049.47900
7.85851	0.00000	5049.47900
7.86234	0.00000	5049.47900
7.86617	0.00000	5049.47900
7.87002	0.00000	5049.47900
7.87386	0.00000	5049.47900
7.87770	0.00000	4996.56600
7.88155	0.00000	4996.56600
7.88538	0.00000	4996.56600
7.88922	0.00000	4996.56600
7.89306	0.00000	4996.56600
7.89692	0.00000	4996.56600
7.90077	0.00000	4996.56600
7.90461	0.00000	5004.29200
7.90845	0.00000	5004.29200
7.91228	0.00000	5004.29200
7.91612	0.00000	5004.29200
7.91995	0.00000	5004.29200
7.92379	0.00000	5004.29200
7.92763	0.00000	4993.99000
7.93147	0.00000	4993.99000
7.93531	0.00000	4993.99000
7.93915	0.00000	4993.99000
7.94299	0.00000	4993.99000
7.94683	0.00000	4993.99000
7.95066	0.00000	4988.83900
7.95450	0.00000	4988.83900
7.95834	0.00000	4988.83900
7.96219	0.00000	4988.83900
7.96602	0.00000	4988.83900
7.96986	0.00000	4988.83900
7.97369	0.00000	5049.47900
7.97753	0.00000	5049.47900
7.98136	0.00000	5049.47900
7.98520	0.00000	5049.47900
7.98903	0.00000	5049.47900
7.99286	0.00000	5049.47900
7.99669	0.00000	4991.41500
8.00053	0.00000	4991.41500
8.00437	0.00000	4991.41500
8.00820	0.00000	4991.41500
8.01204	0.00000	4991.41500
8.01586	0.00000	4991.41500
8.01970	0.00000	4996.56600
8.02355	0.00000	4996.56600
8.02739	0.00000	4996.56600
8.03127	0.00000	4996.56600
8.03512	0.00000	4996.56600
8.03897	0.00000	4996.56600
8.04281	0.00000	4996.56600
8.04664	0.00000	5006.86800
8.05047	0.00000	5006.86800
8.05430	0.00000	5006.86800
8.05813	0.00000	5006.86800
8.06196	0.00000	5006.86800
8.06581	0.00000	5006.86800
8.06966	0.00000	4993.99000
8.07350	0.00000	4993.99000
8.07733	0.00000	4993.99000
8.08117	0.00000	4993.99000
8.08500	0.00000	4993.99000
8.08884	0.00000	4993.99000
8.09267	0.00000	4996.56600
8.09651	0.00000	4996.56600
8.10035	0.00000	4996.56600
8.10417	0.00000	4996.56600
8.10802	0.00000	4996.56600
8.11186	0.00000	4996.56600
8.11570	0.00000	5001.71700
8.11954	0.00000	5001.71700
8.12338	0.00000	5001.71700
8.12721	0.00000	5001.71700
8.13104	0.00000	5001.71700
8.13486	0.00000	5001.71700
8.13870	0.00000	5052.08300
8.14253	0.00000	5052.08300
8.14636	0.00000	5052.08300
8.15019	0.00000	5052.08300
8.15403	0.00000	5052.08300
8.15785	0.00000	5052.08300
8.16169	0.00000	4996.56600
8.16553	0.00000	4996.56600
8.16938	0.00000	4996.56600
8.17322	0.00000	4996.56600
8.17705	0.00000	4996.56600
8.18089	0.00000	4996.56600
8.18473	0.00000	4996.56600
8.18857	0.00000	5004.29200
8.19242	0.00000	5004.29200
8.19626	0.00000	5004.29200
8.20009	0.00000	5004.29200
8.20393	0.00000	5004.29200
8.20777	0.00000	5004.29200
8.21159	0.00000	4993.99000
8.21543	0.00000	4993.99000
8.21926	0.00000	4993.99000
8.22310	0.00000	4993.99000
8.22694	0.00000	4993.99000
8.23077	0.00000	4993.99000
8.23461	0.00000	4996.56600
8.23844	0.00000	4996.56600
8.24227	0.00000	4996.56600
8.24610	0.00000	4996.56600
8.24994	0.00000	4996.56600
8.25377	0.00000	4996.56600
8.25762	0.00000	5052.08300
8.26146	0.00000	5052.08300
8.26529	0.00000	5052.08300
8.26912	0.00000	5052.08300
8.27295	0.00000	5052.08300
8.27678	0.00000	5052.08300
8.28061	0.00000	4993.99000
8.28444	0.00000	4993.99000
8.28827	0.00000	4993.99000
8.29211	0.00000	4993.99000
8.29594	0.00000	4993.99000
8.29977	0.00000	4993.99000
8.30361	0.00000	4993.99000
8.30746	0.00000	4993.99000
8.31131	0.00000	4993.99000
8.31515	0.00000	4993.99000
8.31898	0.00000	4993.99000
8.32281	0.00000	4993.99000
8.32665	0.00000	4993.99000
8.33048	0.00000	5001.71700
8.33432	0.00000	5001.71700
8.33816	0.00000	5001.71700
8.34199	0.00000	5001.71700
8.34583	0.00000	5001.71700
8.34968	0.00000	5001.71700
8.35351	0.00000	4991.41500
8.35735	0.00000	4991.41500
8.36119	0.00000	4991.41500
8.36504	0.00000	4991.41500
8.36887	0.00000	4991.41500
8.37271	0.00000	4991.41500
8.37654	0.00000	5049.47900
8.38037	0.00000	5049.47900
8.38420	0.00000	5049.47900
8.38804	0.00000	5049.47900
8.39188	0.00000	5049.47900
8.39572	0.00000	5049.47900
8.39955	0.00000	4986.26300
8.40338	0.00000	4986.26300
8.40722	0.00000	4986.26300
8.41107	0.00000	4986.26300
8.41490	0.00000	4986.26300
8.41874	0.00000	4986.26300
8.42257	0.00000	4988.83900
8.42641	0.00000	4988.83900
8.43026	0.00000	4988.83900
8.43409	0.00000	4988.83900
8.43792	0.00000	4988.83900
8.44175	0.00000	4988.83900
8.44558	0.00000	5044.27100
8.44942	0.00000	5044.27100
8.45326	0.00000	5044.27100
8.45709	0.00000	5044.27100
8.46092	0.00000	5044.27100
8.46474	0.00000	5044.27100
8.46858	0.00000	5044.27100
8.47241	0.00000	4993.99000
8.47624	0.00000	4993.99000
8.48008	0.00000	4993.99000
8.48392	0.00000	4993.99000
8.48775	0.00000	4993.99000
8.49158	0.00000	4993.99000
8.49542	0.00000	5044.27100
8.49925	0.00000	5044.27100
8.50309	0.00000	5044.27100
8.50692	0.00000	5044.27100
8.51076	0.00000	5044.27100
8.51460	0.00000	5044.27100
8.51844	0.00000	5041.66600
8.52226	0.00000	5041.66600
8.52609	0.00000	5041.66600
8.52992	0.00000	5041.66600
8.53377	0.00000	5041.66600
8.53761	0.00000	5041.66600
8.54144	0.00000	4988.83900
8.54529	0.00000	4988.83900
8.54912	0.00000	4988.83900
8.55294	0.00000	4988.83900
8.55678	0.00000	4988.83900
8.56061	0.00000	4988.83900
8.56447	0.00000	4991.41500
8.56831	0.00000	4991.41500
8.57215	0.00000	4991.41500
8.57599	0.00000	4991.41500
8.57982	0.00000	4991.41500
8.58366	0.00000	4991.41500
8.58750	0.00000	5052.08300
8.59136	0.00000	5052.08300
8.59519	0.00000	5052.08300
8.59903	0.00000	5052.08300
8.60287	0.00000	5052.08300
8.60671	0.00000	5052.08300
8.61054	0.00000	4996.56600
8.61437	0.00000	4996.56600
8.61821	0.00000	4996.56600
8.62204	0.00000	4996.56600
8.62589	0.00000	4996.56600
8.62972	0.00000	4996.56600
8.63355	0.00000	4996.56600
8.63738	0.00000	5052.08300
8.64122	0.00000	5052.08300
8.64505	0.00000	5052.08300
8.64888	0.00000	5052.08300
8.65272	0.00000	5052.08300
8.65657	0.00000	5052.08300
8.66040	0.00000	4991.41500
8.66424	0.00000	4991.41500
8.66807	0.00000	4991.41500
8.67191	0.00000	4991.41500
8.67575	0.00000	4991.41500
8.67958	0.00000	4991.41500
8.68343	0.00000	4988.83900
8.68727	0.00000	4988.83900
8.69109	0.00000	4988.83900
8.69495	0.00000	4988.83900
8.69882	0.00000	4988.83900
8.70269	0.00000	4988.83900
8.70654	0.00000	5046.87500
8.71038	0.00000	5046.87500
8.71421	0.00000	5046.87500
8.71805	0.00000	5046.87500
8.72188	0.00000	5046.87500
8.72573	0.00000	5046.87500
8.72956	0.00000	4996.56600
8.73342	0.00000	4996.56600
8.73726	0.00000	4996.56600
8.74108	0.00000	4996.56600
8.74492	0.00000	4996.56600
8.74875	0.00000	4996.56600
8.75259	0.00000	4986.26300
8.75643	0.00000	4986.26300
8.76028	0.00000	4986.26300
8.76411	0.00000	4986.26300
8.76794	0.00000	4986.26300
8.77177	0.00000	4986.26300
8.77561	0.00000	4986.26300
8.77945	0.00000	4999.14100
8.78329	0.00000	4999.14100
8.78712	0.00000	4999.14100
8.79096	0.00000	4999.14100
8.79480	0.00000	4999.14100
8.79863	0.00000	4999.14100
8.80246	0.00000	4991.41500
8.80631	0.00000	4991.41500
8.81018	0.00000	4991.41500
8.81402	0.00000	4991.41500
8.81787	0.00000	4991.41500
8.82170	0.00000	4991.41500
8.82554	0.00000	5052.08300
8.82938	0.00000	5052.08300
8.83322	0.00000	5052.08300
8.83706	0.00000	5052.08300
8.84089	0.00000	5052.08300
8.84473	0.00000	5052.08300
8.84856	0.00000	4991.41500
8.85241	0.00000	4991.41500
8.85624	0.00000	4991.41500
8.86009	0.00000	4991.41500
8.86392	0.00000	4991.41500
8.86777	0.00000	4991.41500
8.87161	0.00000	4991.41500
8.87543	0.00000	4991.41500
8.87927	0.00000	4991.41500
8.88310	0.00000	4991.41500
8.88694	0.00000	4991.41500
8.89080	0.00000	4991.41500
8.89466	0.00000	5044.27100
8.89851	0.00000	5044.27100
8.90236	0.00000	5044.27100
8.90619	0.00000	5044.27100
8.91003	0.00000	5044.27100
8.91387	0.00000	5044.27100
8.91771	0.00000	5044.27100
8.92155	0.00000	4996.56600
8.92538	0.00000	4996.56600
8.92922	0.00000	4996.56600
8.93305	0.00000	4996.56600
8.93688	0.00000	4996.56600
8.94072	0.00000	4996.56600
8.94457	0.00000	5044.27100
8.94842	0.00000	5044.27100
8.95226	0.00000	5044.27100
8.95609	0.00000	5044.27100
8.95993	0.00000	5044.27100
8.96377	0.00000	5044.27100
8.96760	0.00000	5044.27100
8.97143	0.00000	5044.27100
8.97527	0.00000	5044.27100
8.97911	0.00000	5044.27100
8.98294	0.00000	5044.27100
8.98677	0.00000	5044.27100
8.99060	0.00000	4988.83900
8.99443	0.00000	4988.83900
8.99828	0.00000	4988.83900
9.00213	0.00000	4988.83900
9.00596	0.00000	4988.83900
9.00979	0.00000	4988.83900
9.01364	0.00000	4983.68800
9.01748	0.00000	4983.68800
9.02132	0.00000	4983.68800
9.02516	0.00000	4983.68800
9.02899	0.00000	4983.68800
9.03282	0.00000	4983.68800
9.03666	0.00000	5041.66600
9.04051	0.00000	5041.66600
9.04435	0.00000	5041.66600
9.04818	0.00000	5041.66600
9.05201	0.00000	5041.66600
9.05585	0.00000	5041.66600
9.05969	0.00000	5041.66600
9.06352	0.00000	5001.71700
9.06736	0.00000	5001.71700
9.07119	0.00000	5001.71700
9.07502	0.00000	5001.71700
9.07884	0.00000	5001.71700
9.08268	0.00000	5001.71700
9.08652	0.00000	5039.06200
9.09036	0.00000	5039.06200
9.09420	0.00000	5039.06200
9.09803	0.00000	5039.06200
9.10185	0.00000	5039.06200
9.10568	0.00000	5039.06200
9.10952	0.00000	5044.27100
9.11335	0.00000	5044.27100
9.11719	0.00000	5044.27100
9.12103	0.00000	5044.27100
9.12486	0.00000	5044.27100
9.12870	0.00000	5044.27100
9.13253	0.00000	4986.26300
9.13636	0.00000	4986.26300
9.14020	0.00000	4986.26300
9.14404	0.00000	4986.26300
9.14788	0.00000	4986.26300
9.15171	0.00000	4986.26300
9.15554	0.00000	4991.41500
9.15937	0.00000	4991.41500
9.16321	0.00000	4991.41500
9.16704	0.00000	4991.41500
9.17089	0.00000	4991.41500
9.17473	0.00000	4991.41500
9.17857	0.00000	5046.87500
9.18242	0.00000	5046.87500
9.18626	0.00000	5046.87500
9.19010	0.00000	5046.87500
9.19393	0.00000	5046.87500
9.19776	0.00000	5046.87500
9.20160	0.00000	5046.87500
9.20543	0.00000	5001.71700
9.20926	0.00000	5001.71700
9.21308	0.00000	5001.71700
9.21691	0.00000	5001.71700
9.22075	0.00000	5001.71700
9.22458	0.00000	5001.71700
9.22843	0.00000	5031.25000
9.23227	0.00000	5031.25000
9.23611	0.00000	5031.25000
9.23995	0.00000	5031.25000
9.24378	0.00000	5031.25000
9.24761	0.00000	5031.25000
9.25144	0.00000	5033.85400
9.25529	0.00000	5033.85400
9.25912	0.00000	5033.85400
9.26296	0.00000	5033.85400
9.26680	0.00000	5033.85400
9.27062	0.00000	5033.85400
9.27445	0.00000	4975.96200
9.27828	0.00000	4975.96200
9.28211	0.00000	4975.96200
9.28594	0.00000	4975.96200
9.28979	0.00000	4975.96200
9.29362	0.00000	4975.96200
9.29746	0.00000	4975.96200
9.30130	0.00000	4975.96200
9.30514	0.00000	4975.96200
9.30897	0.00000	4975.96200
9.31281	0.00000	4975.96200
9.31661	0.00000	4975.96200
9.32045	0.00000	4981.11200
9.32428	0.00000	4981.11200
9.32812	0.00000	4981.11200
9.33196	0.00000	4981.11200
9.33579	0.00000	4981.11200
9.33963	0.00000	4981.11200
9.34347	0.00000	5031.25000
9.34730	0.00000	5031.25000
9.35114	0.00000	5031.25000
9.35498	0.00000	5031.25000
9.35881	0.00000	5031.25000
9.36264	0.00000	5031.25000
9.36649	0.00000	5031.25000
9.37032	0.00000	4986.26300
9.37415	0.00000	4986.26300
9.37799	0.00000	4986.26300
9.38183	0.00000	4986.26300
9.38567	0.00000	4986.26300
9.38950	0.00000	4986.26300
9.39334	0.00000	4978.53700
9.39717	0.00000	4978.53700
9.40100	0.00000	4978.53700
9.40483	0.00000	4978.53700
9.40868	0.00000	4978.53700
9.41251	0.00000	4978.53700
9.41634	0.00000	5039.06200
9.42019	0.00000	5039.06200
9.42401	0.00000	5039.06200
9.42784	0.00000	5039.06200
9.43167	0.00000	5039.06200
9.43549	0.00000	5039.06200
9.43932	0.00000	5044.27100
9.44314	0.00000	5044.27100
9.44696	0.00000	5044.27100
9.45079	0.00000	5044.27100
9.45461	0.00000	5044.27100
9.45843	0.00000	5044.27100
9.46225	0.00000	4988.83900
9.46610	0.00000	4988.83900
9.46993	0.00000	4988.83900
9.47375	0.00000	4988.83900
9.47758	0.00000	4988.83900
9.48141	0.00000	4988.83900
9.48523	0.00000	4988.83900
9.48904	0.00000	4988.83900
9.49287	0.00000	4988.83900
9.49669	0.00000	4988.83900
9.50051	0.00000	4988.83900
9.50434	0.00000	4988.83900
9.50817	0.00000	4988.83900
9.51200	0.00000	5041.66600
9.51583	0.00000	5041.66600
9.51965	0.00000	5041.66600
9.52347	0.00000	5041.66600
9.52731	0.00000	5041.66600
9.53114	0.00000	5041.66600
9.53497	0.00000	4965.65900
9.53881	0.00000	4965.65900
9.54265	0.00000	4965.65900
9.54649	0.00000	4965.65900
9.55032	0.00000	4965.65900
9.55415	0.00000	4965.65900
9.55800	0.00000	4965.65900
9.56184	0.00000	4965.65900
9.56567	0.00000	4965.65900
9.56951	0.00000	4965.65900
9.57336	0.00000	4965.65900
9.57721	0.00000	4965.65900
9.58104	0.00000	4970.81000
9.58486	0.00000	4970.81000
9.58871	0.00000	4970.81000
9.59254	0.00000	4970.81000
9.59637	0.00000	4970.81000
9.60020	0.00000	4970.81000
9.60404	0.00000	4973.38500
9.60788	0.00000	4973.38500
9.61172	0.00000	4973.38500
9.61555	0.00000	4973.38500
9.61939	0.00000	4973.38500
9.62323	0.00000	4973.38500
9.62708	0.00000	4970.81000
9.63093	0.00000	4970.81000
9.63476	0.00000	4970.81000
9.63860	0.00000	4970.81000
9.64243	0.00000	4970.81000
9.64626	0.00000	4970.81000
9.65009	0.00000	4970.81000
9.65393	0.00000	5036.45800
9.65777	0.00000	5036.45800
9.66163	0.00000	5036.45800
9.66547	0.00000	5036.45800
9.66930	0.00000	5036.45800
9.67313	0.00000	5036.45800
9.67697	0.00000	4975.96200
9.68081	0.00000	4975.96200
9.68461	0.00000	4975.96200
9.68845	0.00000	4975.96200
9.69228	0.00000	4975.96200
9.69611	0.00000	4975.96200
9.69994	0.00000	4973.38500
9.70377	0.00000	4973.38500
9.70761	0.00000	4973.38500
9.71145	0.00000	4973.38500
9.71528	0.00000	4973.38500
9.71912	0.00000	4973.38500
9.72296	0.00000	4973.38500
9.72679	0.00000	4973.38500
9.73062	0.00000	4973.38500
9.73445	0.00000	4973.38500
9.73829	0.00000	4973.38500
9.74213	0.00000	4973.38500
9.74597	0.00000	5036.45800
9.74980	0.00000	5036.45800
9.75363	0.00000	5036.45800
9.75747	0.00000	5036.45800
9.76133	0.00000	5036.45800
9.76518	0.00000	5036.45800
9.76903	0.00000	5033.85400
9.77288	0.00000	5033.85400
9.77671	0.00000	5033.85400
9.78055	0.00000	5033.85400
9.78440	0.00000	5033.85400
9.78824	0.00000	5033.85400
9.79207	0.00000	5033.85400
9.79590	0.00000	5033.85400
9.79973	0.00000	5033.85400
9.80357	0.00000	5033.85400
9.80741	0.00000	5033.85400
9.81123	0.00000	5033.85400
9.81506	0.00000	5033.85400
9.81889	0.00000	4981.11200
9.82274	0.00000	4981.11200
9.82659	0.00000	4981.11200
9.83043	0.00000	4981.11200
9.83427	0.00000	4981.11200
9.83810	0.00000	4981.11200
9.84194	0.00000	5031.25000
9.84577	0.00000	5031.25000
9.84960	0.00000	5031.25000
9.85343	0.00000	5031.25000
9.85727	0.00000	5031.25000
9.86112	0.00000	5031.25000
9.86495	0.00000	5033.85400
9.86878	0.00000	5033.85400
9.87261	0.00000	5033.85400
9.87644	0.00000	5033.85400
9.88028	0.00000	5033.85400
9.88411	0.00000	5033.85400
9.88795	0.00000	5031.25000
9.89179	0.00000	5031.25000
9.89562	0.00000	5031.25000
9.89946	0.00000	5031.25000
9.90330	0.00000	5031.25000
9.90714	0.00000	5031.25000
9.91097	0.00000	4975.96200
9.91480	0.00000	4975.96200
9.91863	0.00000	4975.96200
9.92247	0.00000	4975.96200
9.92632	0.00000	4975.96200
9.93015	0.00000	4975.96200
9.93398	0.00000	4975.96200
9.93782	0.00000	4975.96200
9.94166	0.00000	4975.96200
9.94549	0.00000	4975.96200
9.94934	0.00000	4975.96200
9.95319	0.00000	4975.96200
9.95703	0.00000	4975.96200
9.96086	0.00000	5039.06200
9.96470	0.00000	5039.06200
9.96854	0.00000	5039.06200
9.97239	0.00000	5039.06200
9.97623	0.00000	5039.06200
9.98007	0.00000	5039.06200
9.98391	0.00000	5028.64500
9.98774	0.00000	5028.64500
9.99157	0.00000	5028.64500
9.99541	0.00000	5028.64500
9.99926	0.00000	5028.64500
