Time (s)   roll (deg)
0.00028	3.10835
0.01893	3.47741
0.03798	2.17159
0.05691	3.73261
0.07580	2.84693
0.09465	4.08804
0.11368	2.13171
0.13257	3.81073
0.15142	3.70203
0.17027	4.15307
0.18915	3.68079
0.20802	3.48694
0.22652	4.62774
0.24538	3.07292
0.26424	3.89376
0.28308	4.78604
0.30192	3.04107
0.32075	4.36974
0.33923	3.43590
0.35805	4.48282
0.37688	4.20409
0.39571	4.66342
0.41454	4.05594
0.43337	4.01887
0.45187	4.84068
0.47072	4.50990
0.48954	4.22131
0.50836	4.66419
0.52719	4.01158
0.54565	4.28020
0.56449	4.15702
0.58332	5.53005
0.60214	3.75613
0.62100	4.78604
0.63986	3.52962
0.65840	5.13297
0.67698	3.62276
0.69584	4.58471
0.71468	4.10887
0.73351	4.99692
0.75234	3.91715
0.77083	5.35139
0.78968	4.37643
0.80852	3.32412
0.82737	3.31924
0.84622	3.49317
0.86506	4.14279
0.88354	3.76646
0.90237	2.65969
0.92120	4.46292
0.94003	3.39037
0.95885	4.23720
0.97733	2.67116
0.99617	3.43766
1.01499	4.05166
1.03382	3.16337
1.05268	4.07586
1.07153	3.84433
1.09001	4.47200
1.10885	2.78958
1.12732	3.36384
1.14619	3.13975
1.16478	5.41386
1.18375	2.80452
1.20231	3.58641
1.22116	3.87835
1.23999	2.97025
1.25883	3.67133
1.27768	3.89346
1.29652	3.00042
1.31501	3.47708
1.33384	2.37954
1.35267	3.19386
1.37149	2.03310
1.39033	3.24293
1.40880	1.78353
1.42763	2.90094
1.44645	2.84545
1.46528	3.76309
1.48412	2.70910
1.50294	2.73169
1.52142	2.93509
1.54024	2.62599
1.55907	3.60801
1.57789	2.19598
1.59672	2.01221
1.61557	1.98456
1.63409	3.03435
1.65299	3.17129
1.67187	2.08320
1.69074	1.89173
1.70959	1.68274
1.72843	2.54509
1.74693	1.83275
1.76577	2.41716
1.78461	3.17442
1.80343	2.46584
1.82229	2.24338
1.84078	1.55735
1.85963	2.49381
1.87846	2.35843
1.89730	2.55519
1.91613	2.41500
1.93496	3.61462
1.95344	1.46233
1.97227	2.63922
1.99109	1.94666
2.00991	2.56906
2.02874	1.61402
2.04758	2.06438
2.06606	2.29963
2.08490	1.84069
2.10374	3.61972
2.12261	2.81533
2.14146	3.90761
2.16031	1.81253
2.17936	3.91715
2.19821	2.97720
2.21704	3.66782
2.23587	2.20709
2.25472	4.00347
2.27319	2.71294
2.29202	2.65969
2.31086	2.64660
2.32968	2.06775
2.34851	3.39341
2.36734	3.55024
2.38582	3.53921
2.40464	3.30961
2.42347	2.74905
2.44230	3.45803
2.46113	3.28640
2.47996	3.32800
2.49843	2.82008
2.51727	4.66171
2.53610	4.43765
2.55493	2.71226
2.57375	3.64702
2.59223	2.80668
2.61106	5.21993
2.62992	4.13803
2.64878	5.37656
2.66762	3.19357
2.68646	5.08653
2.70495	3.76351
2.72378	3.65936
2.74261	3.64702
2.76143	3.54430
2.78026	4.82198
2.79910	3.78972
2.81760	5.23645
2.83646	4.27056
2.85529	3.44385
2.87412	3.11864
2.89296	4.13526
2.91179	4.34433
2.93026	4.13447
2.94909	4.62667
2.96792	4.16160
2.98675	5.37421
3.00557	5.22836
3.02406	4.43040
3.04289	3.72233
3.06171	3.66894
3.08053	4.84107
3.09936	3.05727
3.11820	4.65304
3.13675	3.55854
3.15560	3.50449
3.17443	3.49852
3.19328	3.42247
3.21211	3.82578
3.23094	3.75275
3.24941	4.01476
3.26825	3.51201
3.28708	4.08752
3.30591	3.43159
3.32475	4.76936
3.34359	2.62287
3.36205	4.26255
3.38088	3.46422
3.39972	4.32029
3.41855	3.90640
3.43737	4.53416
3.45585	2.97790
3.47468	2.73738
3.49351	3.83868
3.51233	2.70902
3.53116	3.16030
3.54999	3.46849
3.56846	3.68679
3.58729	4.66657
3.60612	3.89161
3.62497	4.37158
3.64382	3.21384
3.66265	4.81053
3.68114	2.94121
3.69999	4.30919
3.71882	3.60670
3.73767	4.07558
3.75650	3.99059
3.77550	2.77939
3.79434	3.84276
3.81317	2.56450
3.83203	4.65875
3.85089	3.09049
3.86973	3.60243
3.88821	2.77428
3.90705	4.26255
3.92588	3.14010
3.94471	3.53952
3.96353	3.72676
3.98236	2.65750
4.00103	4.08401
4.01994	3.85194
4.03880	3.94790
4.05764	2.52003
4.07648	3.54310
4.09532	2.79138
4.11381	2.53167
4.13265	2.23409
4.15149	1.06900
4.17032	1.13384
4.18917	2.54336
4.20771	2.21894
4.22656	2.08222
4.24540	1.73342
4.26423	2.56629
4.28306	3.08207
4.30189	2.82787
4.32038	2.23562
4.33920	2.97791
4.35802	1.81705
4.37685	2.05380
4.39568	1.67779
4.41452	3.01202
4.43298	3.35278
4.45182	1.83866
4.47064	2.64414
4.48950	1.65829
4.50836	3.44901
4.52719	0.99368
4.54568	1.17963
4.56451	2.43927
4.58334	2.61043
4.60219	2.07174
4.62102	2.20263
4.63949	2.11645
4.65831	2.61500
4.67716	1.12024
4.69599	2.70710
4.71483	0.78582
4.73368	2.25439
4.75216	1.54866
4.77100	2.91002
4.78982	1.71021
4.80866	2.02136
4.82749	2.54815
4.84631	3.09059
4.86480	2.86303
4.88363	2.54800
4.90246	3.69609
4.92129	2.49205
4.94012	2.99376
4.95895	2.93587
4.97741	3.11151
4.99624	3.23158
5.01507	2.88978
5.03389	3.15562
5.05271	3.43694
5.07119	3.04006
5.09002	2.51029
5.10886	2.80182
5.12769	2.95672
5.14652	2.69139
5.16536	4.36258
5.18384	1.12172
5.20267	2.21713
5.22150	2.97996
5.24033	2.20772
5.25916	2.66891
5.27798	3.01655
5.29646	2.88949
5.31529	2.14937
5.33411	3.23645
5.35293	2.99427
5.37178	3.15721
5.39077	3.58759
5.40960	2.20041
5.42842	3.02544
5.44726	3.21544
5.46608	2.46527
5.48490	2.71057
5.50337	3.06204
5.52221	2.34211
5.54104	3.25097
5.55986	2.24975
5.57868	1.96454
5.59751	2.06588
5.61599	1.39191
5.63482	2.29233
5.65366	1.62835
5.67250	1.80887
5.69134	1.88554
5.71017	1.25087
5.72865	1.03024
5.74748	1.90703
5.76630	1.56388
5.78514	1.32095
5.80398	1.71944
5.82245	1.35810
5.84128	1.26673
5.86011	0.93897
5.87893	0.47615
5.89776	1.31745
5.91659	-0.83588
5.93506	0.44412
5.95388	0.40708
5.97270	0.55138
5.99153	0.58344
6.01035	0.67795
6.02918	2.13985
6.04765	-0.47642
6.06648	1.05116
6.08532	0.41764
6.10415	2.20990
6.12298	-1.36605
6.14181	0.71953
6.16028	0.69578
6.17910	1.16254
6.19794	0.92155
6.21677	-0.64054
6.23560	0.94435
6.25406	0.82642
6.27288	0.74110
6.29170	1.12172
6.31053	-0.34375
6.32936	-0.07095
6.34818	0.83020
6.36664	1.68316
6.38547	1.18541
6.40431	1.40160
6.42314	2.04617
6.44196	1.32353
6.46078	0.28291
6.47925	0.63546
6.49807	0.54345
6.51690	0.74110
6.53573	3.18096
6.55455	1.45068
6.57337	2.18594
6.59184	2.63854
6.61066	2.40076
6.62949	1.72925
6.64831	2.14207
6.66714	2.23284
6.68563	2.81375
6.70446	1.69130
6.72329	2.09618
6.74212	2.57871
6.76095	2.19104
6.77979	3.50242
6.79826	3.37887
6.81709	3.39803
6.83591	3.30022
6.85474	3.25846
6.87356	3.35362
6.89238	3.16379
6.91086	2.95042
6.92969	2.87932
6.94851	2.41157
6.96734	3.21859
6.98616	2.92954
7.00515	3.56983
7.02398	3.42906
7.04281	3.55158
7.06163	3.58672
7.08046	3.12340
7.09927	3.09724
7.11774	1.76025
7.13661	3.87868
7.15547	2.62264
7.17430	3.99450
7.19314	2.21951
7.21199	3.55593
7.23047	2.27582
7.24931	3.43460
7.26814	3.37700
7.28696	3.65010
7.30580	3.16125
7.32463	2.78097
7.34310	3.96624
7.36193	2.68517
7.38076	3.84377
7.39958	3.09139
7.41841	2.40856
7.43687	2.49004
7.45569	2.81964
7.47451	3.10497
7.49334	3.03721
7.51216	2.99666
7.53098	3.66159
7.54945	2.92034
7.56830	2.38604
7.58712	3.78633
7.60594	3.60683
7.62476	2.31133
7.64359	3.03981
7.66206	1.92295
7.68091	3.05994
7.69974	1.88341
7.71858	3.96059
7.73741	3.33574
7.75624	5.11148
7.77441	3.07653
7.79337	2.67718
7.81223	4.72087
7.83108	2.93214
7.84996	2.14831
7.86850	4.53465
7.88734	3.75042
7.90617	4.01411
7.92501	3.68982
7.94384	4.56534
7.96267	1.73235
7.98113	4.07343
7.99996	2.80531
8.01878	4.14144
8.03760	3.75149
8.05641	3.07331
8.07524	3.51982
8.09371	2.62278
8.11254	3.96432
8.13137	2.56698
8.15020	4.13545
8.16904	3.55488
8.18787	2.73589
8.20636	4.15835
8.22520	3.55514
8.24402	4.54635
8.26284	1.64048
8.28168	4.30397
8.30014	3.59184
8.31897	3.68290
8.33780	3.82714
8.35662	3.87626
8.37546	4.57794
8.39428	3.50179
8.41276	3.86446
8.43159	2.87266
8.45041	3.99759
8.46924	3.43798
8.48807	4.98075
8.50689	2.99314
8.52536	3.62120
8.54418	4.09323
8.56300	3.27942
8.58183	4.09597
8.60065	3.88605
8.61947	3.25774
8.63794	4.39999
8.65677	3.58950
8.67561	4.36751
8.69445	3.41453
8.71328	4.34835
8.73176	2.93132
8.75059	4.50748
8.76944	3.16337
8.78831	4.83627
8.80714	3.92689
8.82598	4.53693
8.84448	3.82695
8.86331	3.71771
8.88213	2.96399
8.90095	4.16064
8.91980	3.86127
8.93862	3.81518
8.95709	2.69689
8.97592	4.64260
8.99474	2.92674
9.01357	4.00721
9.03241	4.06238
9.05142	4.50634
9.07025	3.34463
9.08908	5.79291
9.10790	4.29929
9.12674	6.28163
9.14557	4.15995
9.16404	3.93464
9.18288	4.78933
9.20170	3.94578
9.22052	4.18691
9.23935	4.65454
9.25818	4.88930
9.27666	4.52523
9.29549	3.42825
9.31431	5.00867
9.33315	3.48987
9.35197	4.34207
9.37079	3.56371
9.38925	5.83850
9.40809	3.79139
9.42692	5.21856
9.44573	3.59037
9.46455	5.72249
9.48303	2.90968
9.50186	3.80047
9.52078	4.45610
9.53962	4.63954
9.55845	4.36752
9.57728	3.04054
9.59580	4.79987
9.61464	2.78499
9.63347	2.93107
9.65232	1.95307
9.67120	2.35312
9.69006	3.74697
9.70856	1.12472
9.72739	3.04288
9.74622	2.49922
9.76504	2.62811
9.78387	3.37801
9.80269	1.71066
9.82116	3.16704
9.83998	2.24401
9.85880	3.65926
9.87764	2.25995
9.89648	3.66870
9.91496	1.79389
9.93379	2.75379
9.95263	1.66870
9.97146	3.01457
9.99028	2.75803
