Time (s)   roll (deg)
0.00029	3.06111
0.01919	2.09901
0.03790	3.26561
0.05674	3.31310
0.07565	4.01153
0.09452	3.26897
0.11337	2.96988
0.13224	3.46037
0.15109	3.09329
0.16960	2.71058
0.18845	3.59756
0.20729	3.53190
0.22613	3.13578
0.24497	2.97500
0.26345	3.10900
0.28228	2.90522
0.30111	2.35759
0.31996	3.33500
0.33879	2.52298
0.35763	3.28683
0.37614	3.23284
0.39499	0.83829
0.41383	2.65877
0.43266	2.18124
0.45149	2.40602
0.47033	2.92826
0.48881	2.55675
0.50764	2.04358
0.52646	2.32194
0.54528	3.08899
0.56411	3.30278
0.58294	1.99393
0.60143	3.35620
0.62028	2.13254
0.63911	2.75773
0.65795	2.67363
0.67678	2.90714
0.69525	2.83164
0.71409	2.12124
0.73293	3.21598
0.75175	1.95439
0.77058	3.59149
0.78941	2.50696
0.80789	3.37824
0.82672	1.75132
0.84554	3.40861
0.86437	1.30694
0.88320	3.14051
0.90203	3.35454
0.92050	2.48191
0.93933	0.61585
0.95816	2.69405
0.97699	0.92718
0.99581	2.39908
1.01466	1.08462
1.03365	1.23588
1.05248	2.04396
1.07130	1.81071
1.09013	1.60391
1.10897	1.31649
1.12744	2.49280
1.14627	1.73883
1.16511	2.33758
1.18396	1.76210
1.20281	2.27109
1.22165	1.17184
1.24012	1.42956
1.25897	0.99569
1.27781	1.93235
1.29665	0.55639
1.31549	1.12880
1.33434	0.76261
1.35283	0.91212
1.37167	0.71242
1.39050	0.46263
1.40933	1.92320
1.42816	2.12457
1.44665	2.80373
1.46550	1.32320
1.48433	0.77512
1.50317	0.50681
1.52201	0.54778
1.54084	-0.16299
1.55931	1.73288
1.57814	0.78914
1.59697	1.55225
1.61585	0.33744
1.63471	0.91226
1.65356	0.00049
1.67208	0.93132
1.69093	1.40549
1.70977	0.02329
1.72861	0.95144
1.74744	1.28017
1.76627	0.69441
1.78479	0.71825
1.80364	2.12340
1.82248	0.78493
1.84132	1.21629
1.86014	0.65415
1.87864	0.64644
1.89749	0.59364
1.91633	1.43410
1.93517	1.17523
1.95401	0.08290
1.97285	1.26522
1.99133	0.67790
2.01016	0.58686
2.02898	-0.54193
2.04783	1.32676
2.06666	1.28391
2.08549	1.10707
2.10398	0.86030
2.12281	0.88568
2.14163	1.45250
2.16046	0.97357
2.17932	1.46927
2.19819	2.82345
2.21668	1.29130
2.23551	1.58928
2.25434	1.37980
2.27317	0.53523
2.29201	0.82354
2.31050	1.68692
2.32934	1.06267
2.34817	0.74459
2.36701	0.75476
2.38584	-0.18315
2.40468	1.04167
2.42316	1.99428
2.44201	1.01940
2.46083	1.15099
2.47967	0.78239
2.49849	1.33238
2.51733	-0.15611
2.53582	1.15237
2.55465	0.13385
2.57350	0.63075
2.59233	1.42799
2.61117	0.36593
2.63019	2.22532
2.64903	0.03416
2.66786	1.28149
2.68669	0.07818
2.70551	0.99810
2.72434	0.92269
2.74281	0.86155
2.76165	2.07504
2.78047	0.58503
2.79930	0.60329
2.81812	1.06412
2.83696	1.15264
2.85543	1.08584
2.87427	1.08356
2.89310	1.12910
2.91192	0.34869
2.93075	0.52310
2.94958	1.87610
2.96806	1.28030
2.98690	1.50382
3.00572	2.12143
3.02454	2.30658
3.04339	1.38417
3.06188	1.17536
3.08072	-0.30790
3.09954	1.02104
3.11836	-0.36918
3.13718	1.34864
3.15600	1.43301
3.17449	1.92491
3.19334	0.66724
3.21221	2.11437
3.23106	0.92173
3.24990	0.95486
3.26873	1.56470
3.28721	1.10707
3.30609	1.82179
3.32496	0.89627
3.34379	1.81103
3.36263	0.75718
3.38148	2.06994
3.39997	1.17313
3.41881	2.57925
3.43764	0.07638
3.45646	1.66333
3.47530	1.17123
3.49378	0.94754
3.51263	0.86355
3.53147	1.15206
3.55032	1.32288
3.56915	1.90343
3.58798	1.61764
3.60646	1.19485
3.62530	0.90851
3.64413	1.12903
3.66298	0.84395
3.68182	1.80797
3.70066	1.67121
3.71914	1.79256
3.73797	1.82017
3.75679	0.72556
3.77562	2.35577
3.79446	1.35202
3.81329	0.34723
3.83178	2.61393
3.85062	1.47686
3.86944	1.48651
3.88827	1.10707
3.90710	1.84388
3.92558	1.80385
3.94442	0.54978
3.96324	0.00311
3.98207	0.59492
4.00089	1.75635
4.01971	2.75293
4.03819	1.46419
4.05702	1.96447
4.07585	1.01470
4.09468	1.51895
4.11350	2.21268
4.13233	1.45804
4.15079	4.19558
4.16966	1.76587
4.18851	2.61893
4.20735	1.79229
4.22618	1.10707
4.24520	0.79102
4.26404	1.89923
4.28288	2.59643
4.30171	2.30502
4.32055	1.82323
4.33939	1.02615
4.35787	0.26455
4.37671	2.10644
4.39555	2.54259
4.41439	1.41358
4.43323	2.02556
4.45205	0.48286
4.47055	2.15665
4.48939	1.82897
4.50822	1.76036
4.52706	1.13026
4.54590	1.21688
4.56475	1.59906
4.58327	2.14589
4.60212	1.95899
4.62097	0.39576
4.63981	2.14118
4.65864	0.52288
4.67714	0.99697
4.69598	-0.63390
4.71481	0.83702
4.73365	-0.99626
4.75249	1.48372
4.77133	0.41840
4.78982	0.35439
4.80866	0.88439
4.82749	-1.39168
4.84634	2.27301
4.86519	0.71687
4.88403	0.78927
4.90252	0.67384
4.92136	1.12949
4.94019	0.12557
4.95903	-0.55256
4.97787	-0.55892
4.99671	0.81748
5.01519	0.52661
5.03404	-0.38936
5.05288	0.74926
5.07172	0.50186
5.09057	0.25357
5.10905	0.26226
5.12791	0.69189
5.14675	0.12979
5.16561	-0.12700
5.18450	-0.44547
5.20335	0.71133
5.22184	1.15137
5.24068	0.37112
5.25952	1.39212
5.27837	0.47532
5.29721	1.59206
5.31604	0.31606
5.33454	0.80450
5.35338	0.17938
5.37222	1.64901
5.39107	0.83139
5.40993	0.29071
5.42878	0.13364
5.44727	1.79842
5.46612	0.85243
5.48497	1.28229
5.50382	1.08482
5.52266	1.34365
5.54116	1.94560
5.56001	0.58483
5.57886	1.83146
5.59770	1.08487
5.61654	1.33844
5.63539	0.05978
5.65390	1.54360
5.67276	0.60847
5.69161	0.91651
5.71044	1.94527
5.72928	0.47700
5.74812	0.13014
5.76662	1.25458
5.78545	2.36051
5.80429	0.73924
5.82312	1.91527
5.84195	0.70827
5.86097	2.51962
5.87981	2.08715
5.89866	2.29126
5.91750	0.21001
5.93634	1.84802
5.95518	0.75093
5.97367	0.44010
5.99252	0.91513
6.01135	0.46877
6.03019	0.32351
6.04902	0.55124
6.06785	0.67950
6.08634	-0.27121
6.10517	1.54780
6.12400	-0.01412
6.14285	0.99744
6.16168	0.56805
6.18055	0.49501
6.19908	0.56847
6.21794	0.17911
6.23678	1.17583
6.25562	0.64696
6.27446	0.03232
6.29295	-0.34262
6.31178	1.40241
6.33061	-0.20331
6.34944	0.00967
6.36828	-0.91254
6.38712	-0.52639
6.40560	-0.91636
6.42445	-0.44829
6.44327	-0.12274
6.46211	0.49124
6.48095	0.65109
6.49978	0.01085
6.51827	0.28601
6.53710	0.49622
6.55592	0.18340
6.57475	-0.23588
6.59358	0.15563
6.61242	0.62944
6.63090	0.28161
6.64972	0.06866
6.66855	0.38874
6.68739	1.23818
6.70623	-1.20089
6.72471	0.29489
6.74354	0.31962
6.76238	-0.01873
6.78122	-0.28164
6.80004	0.53214
6.81887	0.97641
6.83735	-0.14607
6.85618	0.63445
6.87502	-0.39687
6.89385	0.99525
6.91267	0.28240
6.93150	1.57109
6.94997	0.60179
6.96880	1.40727
6.98762	0.39508
7.00645	0.62561
7.02528	0.33255
7.04411	0.34034
7.06259	2.01051
7.08142	-1.07717
7.10026	1.67773
7.11908	0.24104
7.13791	1.98880
7.15640	-0.11856
7.17525	1.10707
7.19411	-0.30878
7.21296	0.06273
7.23180	0.37519
7.25063	0.16331
7.26913	0.31008
7.28796	-0.35379
7.30682	-0.90649
7.32568	0.27517
7.34451	2.03623
7.36335	-1.46732
7.38183	2.15465
7.40067	0.19949
7.41949	1.23549
7.43833	-0.25411
7.45717	0.63710
7.47618	0.22148
7.49502	0.61457
7.51386	1.38409
7.53269	0.34119
7.55152	-0.25848
7.57036	-0.60880
7.58884	1.08497
7.60768	-0.53457
7.62653	1.63737
7.64536	-0.27144
7.66421	1.12812
7.68306	0.41166
7.70155	0.64959
7.72038	0.68682
7.73920	-0.03212
7.75804	1.06040
7.77686	0.05989
7.79570	-0.05371
7.81418	-0.02502
7.83301	0.82815
7.85184	-0.09132
7.87067	0.03859
7.88950	0.24425
7.90797	0.41818
7.92680	1.06255
7.94563	1.39432
7.96446	0.21330
7.98328	1.69414
8.00211	0.40926
8.02058	-0.02818
8.03941	0.21666
8.05823	0.91459
8.07706	0.38362
8.09590	0.50489
8.11474	1.46280
8.13322	-0.87537
8.15205	-0.51714
8.17091	-0.54190
8.18981	1.99549
8.20868	-0.56750
8.22753	0.23902
8.24603	0.26119
8.26487	0.71254
8.28371	1.77353
8.30256	1.16953
8.32140	0.07997
8.33988	0.05214
8.35872	0.78864
8.37755	0.08482
8.39638	0.31198
8.41520	0.23868
8.43404	0.79447
8.45251	-0.65396
8.47135	0.79435
8.49018	-0.47263
8.50901	2.13723
8.52784	0.53183
8.54667	1.23578
8.56516	0.58729
8.58399	1.61958
8.60282	0.56209
8.62164	-0.17174
8.64047	1.29042
8.65930	-0.96698
8.67777	1.19713
8.69660	0.93023
8.71543	0.61984
8.73425	0.72197
8.75308	0.71524
8.77157	0.29949
8.79040	0.56677
8.80923	-0.03050
8.82807	-0.20662
8.84690	1.15480
8.86573	0.48552
8.88421	0.76508
8.90305	-0.13535
8.92189	1.95320
8.94071	0.40052
8.95954	1.23980
8.97836	0.68250
8.99684	0.99856
9.01567	0.09594
9.03450	2.20624
9.05333	0.28133
9.07215	0.21019
9.09117	0.27434
9.11002	1.14991
9.12885	1.51454
9.14769	0.57572
9.16653	1.01584
9.18539	0.47400
9.20389	1.37915
9.22273	0.36016
9.24157	0.72496
9.26039	0.82674
9.27926	1.75232
9.29810	1.12898
9.31662	0.52178
9.33546	0.35729
9.35429	0.45104
9.37312	1.62499
9.39195	0.12337
9.41079	1.58946
9.42929	0.57101
9.44813	0.88159
9.46699	0.98101
9.48582	0.78914
9.50466	1.15089
9.52315	1.15256
9.54198	1.25998
9.56082	0.03482
9.57965	0.86495
9.59849	0.98202
9.61732	1.65629
9.63579	1.61371
9.65464	0.11133
9.67349	2.64396
9.69232	0.06955
9.71115	2.63635
9.72997	0.11970
9.74845	1.08543
9.76727	1.39555
9.78610	1.83790
9.80495	0.95240
9.82378	0.99905
9.84261	1.42462
9.86110	2.31595
9.87993	1.35346
9.89875	2.43531
9.91759	2.26155
9.93643	1.51056
9.95492	1.21820
9.97377	0.78301
9.99261	1.65360
10.01145	0.84937
10.03028	1.56677
10.04911	1.87428
10.06760	2.11739
10.08643	1.84045
10.10527	1.78456
10.12410	1.56161
10.14294	3.34239
10.16176	2.43406
10.18027	1.36219
10.19913	1.79131
10.21799	1.73128
10.23684	1.24274
10.25567	1.22838
10.27451	3.34134
10.29299	2.33951
10.31183	2.21968
10.33065	0.75899
10.34950	1.76713
10.36834	1.77088
10.38683	1.29700
10.40566	1.76745
10.42449	2.11630
10.44332	1.96894
10.46215	1.10707
10.48100	2.67766
10.49949	0.97581
10.51834	2.53514
10.53717	1.54460
10.55600	2.28036
10.57484	-0.43746
10.59367	1.55053
10.61216	1.10707
10.63102	1.76285
10.64985	1.36296
10.66869	1.37851
10.68752	0.56805
10.70652	1.94570
10.72536	0.57572
10.74420	0.50464
10.76304	0.98845
10.78187	1.98175
10.80070	1.31669
10.81918	1.89045
10.83802	1.13156
10.85685	0.68709
10.87569	2.20922
10.89453	0.26040
10.91336	1.59076
10.93183	0.10390
10.95066	1.06332
10.96950	0.39119
10.98833	1.66506
11.00717	0.95156
11.02602	0.89192
11.04449	0.94855
11.06332	1.41559
11.08215	1.33671
11.10097	1.04201
11.11980	1.49730
11.13829	1.19336
11.15713	1.35589
11.17599	0.45304
11.19487	1.40777
11.21371	0.95842
11.23255	0.75285
11.25105	2.74928
11.26989	1.06178
11.28872	1.01804
11.30758	1.03829
11.32644	1.69104
11.34528	1.57652
11.36384	1.37050
11.38275	1.17507
11.40160	1.78497
11.42046	0.94930
11.43931	1.90851
11.45815	1.10707
11.47665	-0.26488
11.49548	1.99222
11.51433	0.84634
11.53316	1.19642
11.55199	0.71598
11.57046	1.64108
11.58929	0.87679
11.60812	1.01609
11.62697	3.36076
11.64581	1.45670
11.66464	0.76440
11.68311	1.25667
11.70194	1.15383
11.72077	-0.05260
11.73960	1.06140
11.75843	1.55636
11.77727	1.90774
11.79575	-0.06164
11.81459	0.43277
11.83342	0.44036
11.85225	1.85284
11.87107	-0.98952
11.88990	2.31548
11.90836	0.21503
11.92719	0.95601
11.94602	0.53764
11.96485	1.76260
11.98368	0.56833
