Time (s)   Thrust (N)   RPM  Input
0.00020	2.28332	3974.18400	7.00000
0.03348	2.47831	4173.17700	7.00000
0.06815	2.68497	4329.60300	7.00000
0.10284	2.85235	4383.27800	7.00000
0.13754	2.97140	4443.99300	7.00000
0.17222	3.06757	4525.24000	7.00000
0.20696	3.13352	4548.06200	7.00000
0.24164	3.18710	4601.46400	7.00000
0.27634	3.23791	4631.48600	7.00000
0.31105	3.26143	4623.44700	7.00000
0.34574	3.27774	4626.35800	7.00000
0.38047	3.30076	4684.57000	7.00000
0.41516	3.31172	4667.24500	7.00000
0.44986	3.33006	4681.67700	7.00000
0.48456	3.33069	4667.24500	7.00000
0.51926	3.34500	4704.86100	7.00000
0.55396	3.34700	4716.61400	7.00000
0.58867	3.36167	4681.71300	7.00000
0.62336	3.36508	4684.62400	7.00000
0.65807	3.37123	4684.60600	7.00000
0.69278	3.37016	4687.50000	7.00000
0.72747	3.36899	4719.52600	7.00000
0.76218	3.37720	4690.39300	7.00000
0.79688	3.38218	4687.50000	7.00000
0.83158	3.38233	4687.50000	7.00000
0.86629	3.37998	4693.28700	7.00000
0.90099	3.38299	4696.12700	7.00000
0.93570	3.38414	4693.28700	7.00000
0.97040	3.38193	4722.43800	7.00000
1.00510	3.38238	4687.50000	7.00000
1.03981	3.38537	4693.28700	7.00000
1.07451	3.38556	4696.12700	7.00000
1.10921	3.38207	4716.61400	7.00000
1.14390	3.38514	4713.70300	7.00000
1.17862	3.37776	4681.71300	7.00000
1.25689	3.37525	4681.71300	7.00000
1.29158	3.37046	4684.60600	7.00000
1.32628	3.37477	4690.37600	7.00000
1.36098	3.37356	4687.50000	7.00000
1.39568	3.36660	4684.60600	7.00000
1.43038	3.37076	4684.62400	7.00000
1.46509	3.35888	4687.50000	7.00000
1.49979	3.36460	4716.61400	7.00000
1.53451	3.36528	4687.50000	7.00000
1.56921	3.36373	4687.50000	7.00000
1.60391	3.37535	4687.50000	7.00000
1.63860	3.38555	4687.50000	7.00000
1.67329	3.38545	4719.52600	7.00000
1.70799	3.37881	4710.64800	7.00000
1.74270	3.37776	4690.39300	7.00000
1.77741	3.37299	4687.50000	7.00000
1.81212	3.38384	4684.62400	7.00000
1.84680	3.37837	4687.50000	7.00000
1.88151	3.38423	4713.70300	7.00000
1.95976	3.38192	4710.64800	7.00000
1.99447	3.37848	4713.70300	7.00000
2.02918	3.38511	4710.64800	7.00000
2.06387	3.37445	4716.61400	7.00000
2.09857	3.38009	4719.52600	7.00000
2.13328	3.37338	4687.50000	7.00000
2.16798	3.37333	4690.39300	7.00000
2.20270	3.36846	4693.28700	7.00000
2.23739	3.36510	4716.43500	7.00000
2.27208	3.36621	4687.50000	7.00000
2.30679	3.37230	4690.39300	7.00000
2.34149	3.36845	4690.37600	7.00000
2.37620	3.37149	4719.52600	7.00000
2.41089	3.37260	4690.37600	7.00000
2.44560	3.37762	4690.39300	7.00000
2.48029	3.37431	4696.18000	7.00000
2.51500	3.37185	4713.54100	7.00000
2.54970	3.37575	4696.18000	7.00000
2.58440	3.37134	4690.39300	7.00000
2.61911	3.36606	4693.25100	7.00000
2.65380	3.36828	4690.39300	7.00000
2.68852	3.37732	4693.28700	7.00000
2.72321	3.37113	4690.37600	7.00000
2.75791	3.37682	4719.52600	7.00000
2.79262	3.37153	4693.25100	7.00000
2.82732	3.37352	4693.28700	7.00000
2.86203	3.37319	4722.43800	7.00000
2.89673	3.38559	4710.64800	7.00000
2.93144	3.38107	4690.39300	7.00000
2.96614	3.38244	4690.39300	7.00000
3.00084	3.38407	4681.74800	7.00000
3.03555	3.38836	4684.60600	7.00000
3.07025	3.39058	4681.71300	7.00000
3.10494	3.38211	4681.74800	7.00000
3.13965	3.38191	4684.60600	7.00000
3.17437	3.38238	4687.50000	7.00000
3.20907	3.37884	4684.60600	7.00000
3.24377	3.37737	4713.70300	7.00000
3.27849	3.38337	4719.32900	7.00000
3.31317	3.38727	4690.39300	7.00000
3.34788	3.38835	4684.60600	7.00000
3.38258	3.38566	4681.74800	7.00000
3.41728	3.39358	4681.71300	7.00000
3.45198	3.37864	4675.92600	7.00000
3.48669	3.38594	4701.96700	7.00000
3.52140	3.38686	4707.88000	7.00000
3.55611	3.38652	4701.96700	7.00000
3.59080	3.38281	4678.81900	7.00000
3.62550	3.38313	4678.81900	7.00000
3.66021	3.38632	4675.99700	7.00000
3.69491	3.39030	4707.88000	7.00000
3.72961	3.39331	4710.79200	7.00000
3.76431	3.39085	4707.75500	7.00000
3.79902	3.39282	4681.71300	7.00000
3.83373	3.38969	4710.79200	7.00000
3.86844	3.38768	4681.74800	7.00000
3.90312	3.39289	4707.88000	7.00000
3.93783	3.39655	4707.75500	7.00000
3.97253	3.39336	4673.03200	7.00000
4.00723	3.39480	4699.14600	7.00000
4.04194	3.39698	4701.96700	7.00000
4.07663	3.38730	4704.96900	7.00000
4.11134	3.39614	4664.35100	7.00000
4.14604	3.39020	4701.96700	7.00000
4.18076	3.38820	4702.05700	7.00000
4.21546	3.39022	4670.13900	7.00000
4.25015	3.38982	4664.49300	7.00000
4.28486	3.39223	4702.05700	7.00000
4.31956	3.39517	4670.13900	7.00000
4.35427	3.39565	4681.71300	7.00000
4.38897	3.39114	4675.92600	7.00000
4.42368	3.39365	4693.28700	7.00000
4.45838	3.38703	4664.35100	7.00000
4.49308	3.39103	4687.50000	7.00000
4.52778	3.39820	4687.50000	7.00000
4.56248	3.39590	4658.56500	7.00000
4.59719	3.40857	4687.50000	7.00000
4.63188	3.40265	4684.60600	7.00000
4.66659	3.40105	4681.67700	7.00000
4.70129	3.40064	4678.76500	7.00000
4.73599	3.39475	4673.03200	7.00000
4.77069	3.39278	4672.94300	7.00000
4.80540	3.38701	4673.03200	7.00000
4.84010	3.38729	4672.94300	7.00000
4.87481	3.38016	4678.76500	7.00000
4.90951	3.38734	4675.92600	7.00000
4.94420	3.38917	4678.76500	7.00000
4.97893	3.39387	4678.76500	7.00000
5.01398	3.39021	4390.62500	6.33750
5.09311	2.87151	4281.66900	6.33750
5.12775	2.69201	4140.62500	6.33750
5.16246	2.54429	4042.55300	6.33750
5.19718	2.45616	3962.45500	6.33750
5.23187	2.39777	3885.86900	6.33750
5.26657	2.33850	3835.53800	6.33750
5.30220	2.21235	3802.47200	6.33750
5.38174	2.19031	3767.49000	6.33750
5.41643	2.17020	3736.00700	6.33750
5.45114	2.14170	3750.00000	6.33750
5.48585	2.13270	3728.85300	6.33750
5.52055	2.12841	3714.75500	6.33750
5.55524	2.11937	3721.59000	6.33750
5.63351	2.10948	3686.56000	6.33750
5.66822	2.11181	3683.03500	6.33750
5.70286	2.10494	3703.83500	6.33750
5.73763	2.10354	3710.93700	6.33750
5.77232	2.09791	3707.38600	6.33750
5.80703	2.09385	3707.38600	6.33750
5.84172	2.09080	3679.51100	6.33750
5.87643	2.09833	3679.51100	6.33750
5.91119	2.09535	3686.56000	6.33750
5.98940	2.09380	3683.03500	6.33750
6.02411	2.08694	3710.93700	6.33750
6.05879	2.09479	3710.93700	6.33750
6.09351	2.09733	3686.56000	6.33750
6.12820	2.09801	3710.93700	6.33750
6.16291	2.09811	3714.48800	6.33750
6.19763	2.09797	3686.56000	6.33750
6.23233	2.10120	3714.48800	6.33750
6.26702	2.10964	3710.93700	6.33750
6.30174	2.11197	3683.03500	6.33750
6.33643	2.10865	3710.93700	6.33750
6.37114	2.10817	3707.38600	6.33750
6.40584	2.11168	3683.03500	6.33750
6.44052	2.10568	3683.03500	6.33750
6.47523	2.10672	3707.38600	6.33750
6.50993	2.10732	3707.38600	6.33750
6.54464	2.10640	3714.48800	6.33750
6.57935	2.10466	3679.51100	6.33750
6.61404	2.10232	3675.98600	6.33750
6.64874	2.10645	3703.83500	6.33750
6.68345	2.10513	3710.93700	6.33750
6.71816	2.10495	3703.83500	6.33750
6.75286	2.10219	3703.83500	6.33750
6.78757	2.10952	3679.51100	6.33750
6.82226	2.11313	3675.98600	6.33750
6.85697	2.10791	3703.83500	6.33750
6.89167	2.10826	3703.83500	6.33750
6.92638	2.10693	3707.38600	6.33750
6.96109	2.10150	3700.28400	6.33750
6.99579	2.10015	3700.28400	6.33750
7.03049	2.09535	3700.28400	6.33750
7.06518	2.10079	3703.83500	6.33750
7.09990	2.09842	3696.73300	6.33750
7.13460	2.09864	3700.28400	6.33750
7.16930	2.10686	3700.28400	6.33750
7.20403	2.10197	3696.73300	6.33750
7.23872	2.10377	3672.46200	6.33750
7.27342	2.10445	3693.18200	6.33750
7.30813	2.10927	3693.18200	6.33750
7.34282	2.10589	3700.28400	6.33750
7.37753	2.10644	3696.73300	6.33750
7.41224	2.10482	3665.41300	6.33750
7.44694	2.09991	3696.73300	6.33750
7.52649	2.10830	3693.18200	6.33750
7.56118	2.10105	3689.63000	6.33750
7.59588	2.10232	3693.18200	6.33750
7.63059	2.10359	3689.63000	6.33750
7.66529	2.10358	3689.63000	6.33750
7.69999	2.10500	3689.63000	6.33750
7.73470	2.10514	3689.63000	6.33750
7.76940	2.10674	3693.18200	6.33750
7.80411	2.10170	3693.18200	6.33750
7.83881	2.11147	3693.18200	6.33750
7.91713	2.10535	3696.73300	6.33750
7.95184	2.10251	3700.28400	6.33750
7.98654	2.10093	3672.46200	6.33750
8.02124	2.10166	3696.73300	6.33750
8.05594	2.10606	3696.73300	6.33750
8.09064	2.10892	3700.28400	6.33750
8.12535	2.10828	3696.73300	6.33750
8.16005	2.10563	3696.73300	6.33750
8.19476	2.10584	3696.73300	6.33750
8.22947	2.10273	3700.28400	6.33750
8.30773	2.10759	3672.46200	6.33750
8.34243	2.10932	3700.28400	6.33750
8.37713	2.10738	3668.93800	6.33750
8.41185	2.10815	3675.98600	6.33750
8.44654	2.10622	3668.93800	6.33750
8.48124	2.11170	3700.28400	6.33750
8.51594	2.11053	3700.28400	6.33750
8.55065	2.11287	3696.73300	6.33750
8.58535	2.10870	3696.73300	6.33750
8.62004	2.10865	3696.73300	6.33750
8.65475	2.11053	3693.18200	6.33750
8.68945	2.11008	3668.93800	6.33750
8.72415	2.11135	3700.28400	6.33750
8.75885	2.10981	3693.18200	6.33750
8.79355	2.10998	3693.18200	6.33750
8.82825	2.11535	3693.18200	6.33750
8.86297	2.11042	3693.18200	6.33750
8.89768	2.10984	3668.93800	6.33750
8.93237	2.10601	3693.18200	6.33750
8.96707	2.11205	3693.18200	6.33750
9.00177	2.10964	3693.18200	6.33750
9.03648	2.11458	3693.18200	6.33750
9.07118	2.11571	3693.18200	6.33750
9.10588	2.11082	3693.18200	6.33750
9.14059	2.11467	3689.63000	6.33750
9.17530	2.34803	3689.63000	6.33750
9.29764	2.10947	3693.18200	6.33750
9.33229	2.11109	3689.63000	6.33750
9.36700	2.10955	3665.41300	6.33750
9.40172	2.11079	3693.18200	6.33750
9.43643	2.11100	3689.63000	6.33750
9.47117	2.10956	3686.07900	6.33750
9.50586	2.10772	3689.63000	6.33750
9.54054	2.11117	3693.18200	6.33750
9.57520	2.10908	3693.18200	6.33750
9.60992	2.11238	3693.18200	6.33750
9.64465	2.10869	3689.63000	6.33750
9.67931	2.10351	3686.07900	6.33750
9.71403	2.10197	3686.07900	6.33750
9.74874	2.10131	3686.07900	6.33750
9.78344	2.11181	3682.52800	6.33750
9.81815	2.10932	3686.07900	6.33750
9.85288	2.09752	3686.07900	6.33750
9.97573	2.09994	3686.07900	6.33750
