Time (s)   roll (deg)
0.00038	3.99330
0.02015	4.39255
0.03912	3.94011
0.05827	3.93283
0.07711	4.83751
0.09622	4.27512
0.11495	4.35725
0.13398	4.11430
0.15356	4.68341
0.17431	4.37756
0.19401	4.41858
0.21309	4.98633
0.23255	5.34515
0.25161	3.66922
0.27080	3.66141
0.29028	3.43384
0.30995	4.49518
0.32940	3.76345
0.34801	4.10122
0.36769	4.73380
0.38670	4.37307
0.40584	4.70064
0.42439	6.09371
0.44330	4.09278
0.46278	5.79408
0.48156	5.60961
0.50034	6.11192
0.51921	5.39733
0.53868	5.38885
0.55737	4.59796
0.57621	5.39837
0.59517	4.45555
0.61431	4.85349
0.63282	4.53703
0.65141	6.02740
0.67064	4.94589
0.68976	5.12889
0.70849	4.64449
0.72732	5.01097
0.74591	6.15020
0.76467	5.11687
0.78357	5.59301
0.80252	5.69411
0.82141	6.28901
0.84056	4.70342
0.85920	5.57318
0.87830	6.08652
0.89719	5.37859
0.91566	4.91049
0.93447	5.07300
0.95371	4.80580
0.97240	4.22920
0.99134	5.82658
1.00999	4.86738
1.02921	6.36220
1.04816	5.10934
1.06674	5.55838
1.08577	4.13964
1.10489	5.03828
1.12383	4.50742
1.14277	5.61512
1.16141	5.53433
1.18033	6.02026
1.19920	4.90344
1.21815	5.90708
1.23734	4.93446
1.25632	5.61764
1.27519	5.30389
1.29383	5.47415
1.31283	4.98937
1.33173	5.56098
1.35024	5.33996
1.36916	4.95629
1.38816	5.87844
1.40690	5.26711
1.42552	4.20054
1.44409	3.79932
1.46263	6.65882
1.48117	5.02052
1.49983	4.46605
1.51840	4.89865
1.53694	4.40274
1.55550	4.35569
1.57404	3.62035
1.59269	4.87448
1.61121	2.81232
1.62973	4.34677
1.64825	4.62238
1.66677	4.48625
1.68529	4.58804
1.70392	4.22427
1.72243	4.54392
1.74095	4.44072
1.75946	4.74386
1.77798	3.38092
1.79649	4.66179
1.81514	3.50689
1.83366	4.59640
1.85217	4.14707
1.87073	4.48890
1.88934	4.65646
1.90791	4.32452
1.92659	4.09775
1.94511	4.30166
1.96363	3.52327
1.98215	4.24404
2.00067	4.89942
2.01931	4.82236
2.03782	4.44628
2.05632	3.68190
2.07483	4.99116
2.09334	3.72931
2.11185	4.30463
2.13048	4.05830
2.14900	2.55992
2.16750	4.80611
2.18601	3.52595
2.20452	5.43269
2.22302	4.42166
2.24173	3.88902
2.26030	4.03654
2.27883	4.01791
2.29736	4.66058
2.31589	4.25679
2.33462	3.62939
2.35318	3.74635
2.37170	3.61766
2.39023	3.69106
2.40875	5.01632
2.42727	3.88275
2.44590	4.29066
2.46442	3.35109
2.48293	3.59570
2.50143	4.46549
2.51995	3.37439
2.53846	4.15599
2.55710	3.80488
2.57561	5.15808
2.59412	4.43811
2.61263	4.56297
2.63114	3.62708
2.64976	4.90208
2.66828	3.38735
2.68680	3.78372
2.70531	3.66620
2.72405	4.16788
2.74263	3.05531
2.76130	4.28313
2.77984	5.49012
2.79837	4.92412
2.81690	5.23016
2.83542	4.83944
2.85393	4.57013
2.87257	6.01904
2.89109	4.77257
2.90960	4.46033
2.92811	4.37880
2.94665	4.61014
2.96519	3.45046
2.98383	5.30170
3.00235	4.73715
3.02090	5.23710
3.03945	3.91999
3.05797	5.25973
3.07665	4.47353
3.09519	4.64729
3.11371	5.71294
3.13223	4.24136
3.15074	4.92261
3.16926	4.82967
3.18789	4.05400
3.20641	5.43386
3.22492	5.74893
3.24344	5.65845
3.26195	3.99171
3.28048	5.16349
3.29915	5.32899
3.31767	4.74002
3.33620	4.78376
3.35476	5.48026
3.37331	5.19431
3.39211	5.25170
3.41073	5.07219
3.42928	5.11794
3.44780	4.90793
3.46633	4.60971
3.48485	5.58653
3.50349	5.91876
3.52201	5.64555
3.54052	4.98751
3.55903	5.16860
3.57755	5.92998
3.59606	5.30066
3.61470	4.85049
3.63322	5.13774
3.65173	5.49908
3.67025	4.14396
3.68877	4.61422
3.70739	5.58098
3.72592	5.17021
3.74445	5.52304
3.76298	4.01646
3.78151	5.55058
3.80003	5.04944
3.81869	5.18489
3.83722	4.33969
3.85573	4.96287
3.87425	4.47617
3.89276	5.12240
3.91127	4.00979
3.92992	5.07387
3.94844	5.66912
3.96694	5.65728
3.98545	5.31108
4.00395	4.59453
4.02246	6.25972
4.04111	4.89525
4.05962	4.53189
4.07813	3.81741
4.09663	4.54978
4.11515	4.85364
4.13378	4.02890
4.15244	5.81358
4.17132	3.54688
4.18998	3.55983
4.20858	3.49212
4.22715	5.35849
4.24585	3.84164
4.26438	5.07420
4.28290	4.25302
4.30143	4.78279
4.31995	4.05369
4.33856	4.34477
4.35729	3.61245
4.37582	4.59772
4.39433	4.05125
4.41285	3.16655
4.43135	4.51033
4.44998	4.17938
4.46848	3.87937
4.48698	3.51787
4.50548	4.12656
4.52398	4.45157
4.54248	2.68799
4.56110	4.28439
4.57960	2.70889
4.59810	4.71254
4.61660	2.96189
4.63510	4.68206
4.65359	4.23645
4.67222	4.47722
4.69072	4.87886
4.70922	3.88603
4.72772	3.69778
4.74621	2.28962
4.76473	3.83875
4.78337	3.95481
4.80188	4.18689
4.82038	4.60571
4.83888	4.23194
4.85738	2.42294
4.87600	2.21410
4.89450	4.52853
4.91300	3.04551
4.93150	4.81799
4.94999	4.07816
4.96850	3.54868
4.98713	3.59663
5.00562	3.85008
5.02412	3.62443
5.04262	3.62566
5.06111	5.39841
5.07961	4.15209
5.09824	4.23900
5.11674	3.92517
5.13524	3.68842
5.15373	5.02709
5.17224	4.43271
5.19086	4.40353
5.20937	4.09890
5.22788	4.33099
5.24640	3.81573
5.26529	4.03174
5.28414	4.55209
5.30304	3.85871
5.32132	5.11740
5.34005	3.62646
5.35870	5.36915
5.37778	4.28950
5.39678	5.03997
5.41689	4.95121
5.43588	4.51934
5.45478	4.20173
5.47358	4.47734
5.49262	4.14924
5.51180	4.80630
5.53068	4.78333
5.54897	5.42846
5.56773	4.41855
5.58657	4.87813
5.60578	5.05830
5.62464	4.37040
5.64370	4.61147
5.66274	4.60038
5.68166	5.72184
5.70054	5.18951
5.71944	5.48219
5.73859	4.65558
5.75748	5.09799
5.77617	4.78847
5.79547	6.42787
5.81437	4.71166
5.83350	4.12341
5.85238	4.69673
5.87143	5.13664
5.89043	4.79294
5.90916	5.26463
5.92797	4.12209
5.94686	4.77137
5.96563	4.44886
5.98461	5.34920
6.00351	5.11972
6.02250	4.54978
6.04144	5.31275
6.06024	6.49136
6.07929	5.58443
6.09832	4.96701
6.11800	4.70417
6.13697	6.31156
6.15619	6.06756
6.17543	5.32747
6.19551	5.54336
6.21478	5.90087
6.23523	5.78137
6.25454	5.68994
6.27327	5.71912
6.29198	6.19270
6.31074	5.40421
6.32953	4.83087
6.34815	5.57562
6.36723	5.44610
6.38656	5.81545
6.40556	6.24984
6.42423	6.72003
6.44320	6.44935
6.46200	6.32784
6.48056	5.17246
6.49939	5.55246
6.51886	6.38926
6.53812	5.38023
6.55672	4.47988
6.57556	5.30618
6.59448	4.79000
6.61325	6.02412
6.63157	5.34101
6.65011	5.06841
6.66877	4.61103
6.68779	4.98825
6.70649	4.90537
6.72515	5.46164
6.74393	5.25677
6.76303	5.47183
6.78158	6.63243
6.80005	5.15821
6.81895	5.41513
6.83789	4.64308
6.85719	4.81715
6.87610	5.51866
6.89637	5.43673
6.91539	5.29250
6.93392	6.12815
6.95279	4.88754
6.97165	4.92265
6.99039	5.26556
7.00940	5.89267
7.02820	4.10288
7.04712	4.74038
7.06644	4.38514
7.08512	4.55722
7.10422	4.53982
7.12301	5.30066
7.14204	4.57333
7.16116	5.45539
7.17964	3.68288
7.19860	5.09595
7.21743	3.99129
7.23627	4.31229
7.25547	4.62400
7.27406	5.12400
7.29303	5.30111
7.31193	3.38456
7.33102	5.50049
7.34975	4.54898
7.36852	5.69353
7.38716	5.30014
7.40602	4.91036
7.42482	4.59614
7.44349	5.57000
7.46255	4.78297
7.48118	5.53617
7.49989	4.52829
7.51876	4.51715
7.53769	5.05304
7.55617	5.33869
7.57464	4.16542
7.59339	4.69657
7.61203	5.04522
7.63061	3.90287
7.64978	5.46550
7.66848	4.75086
7.68700	5.21856
7.70587	5.29423
7.72445	4.92533
7.74327	4.69584
7.76192	4.99643
7.78047	4.12742
7.79894	4.97020
7.81781	4.70417
7.83652	5.14048
7.85533	4.58076
7.87390	4.62583
7.89289	5.28168
7.91168	4.13045
7.93046	4.51632
7.94893	4.53094
7.96806	5.48741
7.98715	4.84228
8.00612	4.89351
8.02483	3.98532
8.04349	3.83237
8.06222	5.81246
8.08087	3.56586
8.09986	4.11986
8.11866	5.11125
8.13745	5.59664
8.15618	4.06501
8.17500	5.93111
8.19368	5.03321
8.21236	4.83126
8.23102	4.44371
8.24991	4.69418
8.26874	5.57205
8.28756	4.08720
8.30627	4.26937
8.32536	4.12433
8.34404	5.08489
8.36280	3.75657
8.38148	4.55528
8.40033	4.14764
8.41897	5.17401
8.43786	4.50008
8.45674	4.79486
8.47550	3.66443
8.49441	5.20230
8.51334	4.76883
8.53227	4.79215
8.55121	4.44029
8.57015	5.26117
8.58893	3.97604
8.60783	6.09066
8.62656	5.10003
8.64516	3.80476
8.66390	5.05300
8.68281	3.97388
8.70179	4.22920
8.72034	4.21500
8.73908	6.16958
8.75783	3.62586
8.77678	4.51651
8.79543	4.61149
8.81425	4.54863
8.83290	4.33572
8.85175	4.30846
8.87045	4.64418
8.88934	4.82875
8.90825	4.37127
8.92700	5.18484
8.94589	4.81550
8.96487	4.48504
8.98339	4.95838
9.00240	3.91281
9.02102	4.97799
9.03977	5.55207
9.05837	5.15064
9.07729	5.00854
9.09579	5.66303
9.11455	5.17951
9.13353	4.60270
9.15218	4.03046
9.17108	5.73301
9.18967	4.30324
9.20832	4.52148
9.22708	3.85588
9.24604	4.86718
9.26478	5.85415
9.28350	3.78786
9.30211	4.73364
9.32101	4.48870
9.33944	5.67501
9.35821	4.97626
9.37718	3.73368
9.39636	5.83967
9.41512	4.52723
9.43407	5.31606
9.45308	5.43972
9.47187	5.47614
9.49066	4.72327
9.50961	5.77122
9.52851	4.65034
9.54697	5.02714
9.56573	5.00467
9.58465	4.77431
9.60355	5.07511
9.62250	4.57856
9.64137	5.46959
9.66010	4.49493
9.67899	5.38271
9.69774	3.94403
9.71693	4.91379
9.73588	5.11254
9.75464	5.43460
9.77332	5.33186
9.79209	4.20054
9.81078	4.45920
9.82973	4.53902
9.84838	5.36663
9.86718	5.05972
9.88596	4.97528
9.90490	4.90966
9.92362	4.03417
9.94264	3.62350
9.96132	4.99212
9.98009	4.06541
9.99878	4.72352
10.01765	5.01902
10.03647	5.90741
10.05557	4.84899
10.07424	6.09711
10.09300	3.94872
10.11166	5.39623
10.13036	3.80404
10.14919	4.97850
10.16799	5.00497
10.18673	4.68067
10.20556	4.82909
10.22435	3.68398
10.24305	4.45089
10.26199	4.59053
10.28044	4.18453
10.29920	4.05300
10.31815	4.30355
10.33700	5.42310
10.35578	4.72477
10.37477	4.94177
10.39348	4.71291
10.41233	5.39289
10.43125	5.25677
10.45019	4.77571
10.46892	5.15469
10.48787	3.75997
10.50660	4.79991
10.52542	4.69798
10.54409	5.70744
10.56286	4.29416
10.58172	6.11979
10.60065	5.36382
10.61994	4.97551
10.64037	5.04037
10.66029	6.08846
10.67888	5.31851
10.69750	6.28687
10.71604	5.14076
10.73498	6.02874
10.75401	5.33307
10.77287	5.92598
10.79188	5.39568
10.81080	5.99342
10.82988	4.98781
10.84880	5.48440
10.86775	5.77572
10.88668	5.62657
10.90533	5.42556
10.92460	5.41201
10.94332	5.17350
10.96222	5.76408
10.98124	5.56824
11.00047	5.57522
11.01951	4.91371
11.03797	5.92959
11.05688	5.59255
11.07593	5.05859
11.09451	6.27257
11.11346	4.45746
11.13250	4.68611
11.15117	6.02246
11.17009	6.04844
11.18888	6.49357
11.20766	5.23830
11.22654	6.04684
11.24525	5.83846
11.26382	6.21860
11.28252	5.26865
11.30159	6.76105
11.32045	5.53291
11.33928	7.30910
11.35808	5.70994
11.37693	6.21820
11.39597	4.85336
11.41465	6.12325
11.43413	5.29092
11.45325	5.19892
11.47233	4.70117
11.49128	5.32433
11.50999	4.91512
11.52893	4.86342
11.54806	4.89581
11.56669	4.02779
11.58563	4.39632
11.60473	4.88221
11.62349	5.04918
11.64259	4.67801
11.66121	4.47095
11.68003	4.00207
11.69880	3.93364
11.71753	3.81513
11.73664	4.22800
11.75571	2.77773
11.77436	4.75977
11.79353	4.23440
11.81257	4.99413
11.83127	4.13661
11.85043	4.47353
11.86965	3.80812
11.88850	5.79944
11.90761	4.52732
11.92616	5.36184
11.94523	5.86518
11.96411	3.91796
11.98367	5.43695
