Time (s)   roll (deg)
0.00372	-1.14497
0.02263	-0.10417
0.04140	-0.13584
0.06008	0.44396
0.07882	-1.10888
0.09737	-0.49023
0.11589	1.33327
0.13443	-0.16497
0.15299	-1.06999
0.17165	-0.42278
0.19018	0.01917
0.20870	-0.21389
0.22722	-0.14026
0.24574	0.63909
0.26426	0.82115
0.28290	0.26354
0.30142	1.39656
0.31994	1.03818
0.33846	1.93832
0.35698	2.14951
0.37550	2.85013
0.39415	2.77165
0.41267	5.22028
0.43118	4.45930
0.44970	4.04054
0.46822	5.85197
0.48686	5.45111
0.50538	4.56399
0.52392	5.32240
0.54244	5.65196
0.56096	7.23068
0.57949	7.33447
0.59813	7.23339
0.61666	8.21544
0.63519	8.34894
0.65372	9.13703
0.67225	9.54801
0.69077	8.77983
0.70939	10.69809
0.72791	11.21082
0.74642	11.24893
0.76493	12.74265
0.78345	11.78467
0.80197	12.48473
0.82063	12.81371
0.83917	13.79678
0.85769	14.26490
0.87621	15.52536
0.89473	14.64748
0.91327	16.64581
0.93182	14.66292
0.95034	15.84948
0.96887	15.68045
0.98740	16.57937
1.00592	17.46266
1.02456	17.88768
1.04308	18.35224
1.06159	18.75245
1.08011	18.46888
1.09863	19.10847
1.11714	19.47987
1.13578	19.17851
1.15428	19.28725
1.17280	20.09992
1.19132	19.84878
1.20985	20.33916
1.22848	20.74406
1.24700	20.89826
1.26551	22.23961
1.28403	21.30535
1.30254	22.11780
1.32105	20.76233
1.33967	23.39890
1.35819	21.50796
1.37697	20.99867
1.39581	21.30233
1.41464	20.38890
1.43350	20.55817
1.45201	20.55065
1.47086	19.38971
1.48970	20.60357
1.50856	18.75720
1.52740	20.78353
1.54625	18.60283
1.56473	18.88575
1.58369	18.86506
1.60259	18.86547
1.62145	19.27838
1.64032	17.93474
1.65883	17.99540
1.67770	17.65129
1.69655	17.49408
1.71540	16.74763
1.73424	17.47736
1.75308	18.30967
1.77156	15.88069
1.79042	15.45944
1.80926	14.60365
1.82811	15.97535
1.84695	13.88340
1.86580	14.62447
1.88432	13.76173
1.90317	13.29500
1.92202	14.52567
1.94086	14.18068
1.95971	12.31522
1.97872	13.84225
1.99757	12.82214
2.01641	13.71423
2.03524	12.13697
2.05408	11.71329
2.07292	10.72460
2.09139	11.52904
2.11024	11.26134
2.12906	10.88581
2.14790	10.77423
2.16676	8.95061
2.18561	10.23802
2.20411	10.96807
2.22296	9.65110
2.24180	10.18044
2.26065	8.75324
2.27949	10.27892
2.29834	9.91387
2.31685	9.03567
2.33569	9.23085
2.35453	8.52800
2.37339	8.43410
2.39226	9.67928
2.41102	8.43317
2.43005	8.16006
2.44899	9.02954
2.46787	7.50882
2.48674	8.70317
2.50560	7.27903
2.52411	8.58907
2.54296	8.75545
2.56180	7.76482
2.58066	9.33219
2.59951	8.38803
2.61835	8.55079
2.63686	8.53752
2.65569	9.43272
2.67454	10.21544
2.69339	7.49515
2.71222	8.54409
2.73105	7.80935
2.74955	7.89810
2.76840	9.34763
2.78723	9.31301
2.80606	8.45514
2.82490	8.64751
2.84337	9.55701
2.86222	10.11885
2.88105	9.04128
2.89988	10.41365
2.91871	8.53657
2.93754	8.54581
2.95603	11.16812
2.97489	10.40582
2.99373	11.31194
3.01256	11.01644
3.03140	9.76636
3.05024	11.28537
3.06872	10.38188
3.08756	11.86744
3.10641	12.46511
3.12525	11.68609
3.14409	12.10702
3.16293	12.46116
3.18154	12.33612
3.20049	12.68733
3.21936	11.68634
3.23823	14.02979
3.25707	13.53413
3.27558	12.39531
3.29463	12.63315
3.31348	12.35281
3.33241	14.11528
3.35122	13.36219
3.37024	13.38584
3.38867	14.64534
3.40747	13.82510
3.42629	14.36656
3.44506	13.71568
3.46381	14.20413
3.48269	15.33213
3.50125	14.71945
3.52014	15.35402
3.53902	14.75482
3.55787	15.01060
3.57673	15.48038
3.59560	14.62942
3.61409	14.24453
3.63295	16.85715
3.65181	14.84188
3.67066	16.28992
3.68951	15.75544
3.70836	15.50298
3.72685	15.70451
3.74570	16.15597
3.76455	16.37785
3.78341	16.78283
3.80226	16.29538
3.82073	16.82234
3.83961	15.57737
3.85845	16.38522
3.87730	16.03293
3.89614	16.02563
3.91497	17.81276
3.93346	16.90800
3.95231	16.82894
3.97115	15.70585
3.99000	15.43305
4.00886	16.72828
4.02768	16.69503
4.04616	16.46892
4.06501	16.23108
4.08386	16.75639
4.10270	16.39706
4.12154	16.84882
4.14039	15.90384
4.15890	15.73964
4.17775	16.60929
4.19659	16.73987
4.21544	15.34779
4.23428	15.46711
4.25276	17.59945
4.27161	16.45636
4.29044	14.94684
4.30930	15.68861
4.32818	15.86090
4.34704	14.94601
4.36554	15.52283
4.38438	15.60650
4.40323	15.22970
4.42207	15.11159
4.44091	16.80011
4.45975	13.39540
4.47825	16.01547
4.49709	14.09671
4.51593	13.31779
4.53479	14.36387
4.55363	14.08282
4.57265	15.20231
4.59150	14.09341
4.61036	14.42021
4.62919	15.27557
4.64802	13.82938
4.66687	13.70924
4.68535	13.91524
4.70419	13.58065
4.72303	14.27237
4.74187	13.94296
4.76069	14.33559
4.77953	13.52865
4.79805	14.01172
4.81689	12.69273
4.83572	13.08321
4.85456	14.10670
4.87340	13.19870
4.89224	13.08848
4.91072	12.33915
4.92957	13.34084
4.94841	13.48162
4.96724	12.25926
4.98608	13.04093
5.00456	13.66035
5.02340	11.78036
5.04224	13.35995
5.06108	13.37916
5.07993	11.90529
5.09877	12.53326
5.11725	12.56853
5.13611	12.30849
5.15496	12.64125
5.17381	11.18914
5.19266	12.44739
5.21150	12.75050
5.23000	12.73744
5.24885	12.27251
5.26768	11.48138
5.28653	12.50141
5.30539	10.82210
5.32404	11.91666
5.34278	12.95799
5.36173	12.42135
5.38061	11.68031
5.39948	11.68384
5.41833	12.19822
5.43684	12.06257
5.45568	13.58085
5.47454	12.61302
5.49340	12.83178
5.51225	12.74905
5.53111	12.87630
5.54961	11.99178
5.56846	13.44474
5.58731	13.18194
5.60615	14.03092
5.62500	13.11764
5.64388	14.15271
5.66239	13.05895
5.68124	13.04833
5.70008	13.16152
5.71892	14.09169
5.73775	12.60434
5.75659	12.42560
5.77508	13.30220
5.79395	12.14339
5.81279	14.16948
5.83164	13.88445
5.85047	14.13881
5.86896	13.68170
5.88781	14.02795
5.90686	14.32001
5.92586	14.45580
5.94476	15.06288
5.96364	14.93403
5.98217	14.58454
6.00107	14.92246
6.01995	14.54121
6.03882	14.29062
6.05767	14.19399
6.07653	13.79549
6.09506	13.98392
6.11393	14.58796
6.13277	14.97946
6.15162	15.05700
6.17047	14.16418
6.18934	14.54248
6.20786	14.87170
6.22670	14.34252
6.24555	14.37252
6.26440	15.97177
6.28324	14.05285
6.30176	15.53285
6.32079	14.95638
6.33969	15.10585
6.35855	15.81805
6.37741	15.01626
6.39627	15.44733
6.41476	14.40010
6.43359	15.00381
6.45243	14.02450
6.47128	14.80512
6.49013	15.77836
6.50898	15.08348
6.52749	15.45641
6.54637	14.96895
6.56521	14.54155
6.58407	15.05294
6.60291	14.33751
6.62175	15.59416
6.64077	14.96865
6.65961	14.84952
6.67844	14.16294
6.69727	15.51733
6.71611	15.11103
6.73460	14.89428
6.75345	14.59088
6.77229	14.90848
6.79113	14.23751
6.80998	14.71004
6.82881	14.81871
6.84728	14.40212
6.86612	14.65321
6.88496	15.99653
6.90381	15.48959
6.92264	14.60195
6.94151	15.09586
6.96003	15.40320
6.97889	15.24089
6.99773	15.20121
7.01657	14.56372
7.03542	14.19897
7.05391	13.94481
7.07276	14.79940
7.09161	14.45362
7.11044	13.52431
7.12929	15.11649
7.14815	15.18135
7.16665	13.83143
7.18550	14.70728
7.20434	13.49096
7.22318	14.62916
7.24202	14.55569
7.26087	13.77591
7.27941	14.17067
7.29830	13.94378
7.31717	13.60959
7.33602	12.62615
7.35487	13.66943
7.37372	14.13229
7.39221	12.47215
7.41106	13.90173
7.42991	12.69816
7.44875	13.27470
7.46759	13.71819
7.48608	13.24554
7.50492	14.38547
7.52377	13.39625
7.54261	13.63588
7.56145	13.15882
7.57996	13.15022
7.59856	13.03730
7.61744	14.10677
7.63634	13.19560
7.65520	13.17080
7.67407	12.63459
7.69292	13.31529
7.71141	12.76051
7.73030	12.63200
7.74918	11.55789
7.76803	11.96666
7.78689	12.73879
7.80572	12.14485
7.82423	13.47253
7.84310	12.43882
7.86194	12.86441
7.88079	12.62767
7.89963	14.18929
7.91816	13.36148
7.93705	12.90473
7.95592	11.54739
7.97477	12.58804
7.99361	14.33074
