Time (s)   Thrust (N)   RPM
0.00038	0.00000	4999.12700
0.00429	0.00000	4999.12700
0.00818	0.00000	4999.12700
0.01203	0.00000	4999.12700
0.01586	0.00000	4999.12700
0.01994	0.00000	4999.12700
0.02392	0.00000	5003.45300
0.02789	0.00000	5003.45300
0.03179	0.00000	5003.45300
0.03565	0.00000	5003.45300
0.03950	0.00000	5003.45300
0.04333	0.00000	5003.45300
0.04718	0.00000	4974.75600
0.05105	0.00000	4974.75600
0.05489	0.00000	4974.75600
0.05874	0.00000	4974.75600
0.06257	0.00000	4974.75600
0.06641	0.00000	4974.75600
0.07025	0.00000	4933.09800
0.07408	0.00000	4933.09800
0.07791	0.00000	4933.09800
0.08174	0.00000	4933.09800
0.08556	0.00000	4933.09800
0.08939	0.00000	4933.09800
0.09322	0.00000	4887.25100
0.09704	0.00000	4887.25100
0.10087	0.00000	4887.25100
0.10470	0.00000	4887.25100
0.10853	0.00000	4887.25100
0.11234	0.00000	4887.25100
0.11618	0.00000	4845.53500
0.12002	0.00000	4845.53500
0.12385	0.00000	4845.53500
0.12767	0.00000	4845.53500
0.13150	0.00000	4845.53500
0.13533	0.00000	4845.53500
0.13915	0.00000	4838.79700
0.14298	0.00000	4838.79700
0.14681	0.00000	4838.79700
0.15065	0.00000	4838.79700
0.15448	0.00000	4838.79700
0.15831	0.00000	4818.31400
0.16216	0.00000	4818.31400
0.16598	0.00000	4818.31400
0.16982	0.00000	4818.31400
0.17366	0.00000	4818.31400
0.17750	0.00000	4818.31400
0.18134	0.00000	4796.82900
0.18517	0.00000	4796.82900
0.18902	0.00000	4796.82900
0.19287	0.00000	4796.82900
0.19665	0.00000	4796.82900
0.20049	0.00000	4796.82900
0.20433	0.00000	4780.16000
0.20816	0.00000	4780.16000
0.21198	0.00000	4780.16000
0.21583	0.00000	4780.16000
0.21965	0.00000	4780.16000
0.22349	0.00000	4780.16000
0.22733	0.00000	4755.83100
0.23116	0.00000	4755.83100
0.23499	0.00000	4755.83100
0.23883	0.00000	4755.83100
0.24265	0.00000	4755.83100
0.24649	0.00000	4755.83100
0.25034	0.00000	4745.06500
0.25418	0.00000	4745.06500
0.25801	0.00000	4745.06500
0.26185	0.00000	4745.06500
0.26570	0.00000	4745.06500
0.26953	0.00000	4745.06500
0.27336	0.00000	4739.73600
0.27718	0.00000	4739.73600
0.28102	0.00000	4739.73600
0.28486	0.00000	4739.73600
0.28870	0.00000	4739.73600
0.29253	0.00000	4754.06800
0.29638	0.00000	4754.06800
0.30022	0.00000	4754.06800
0.30406	0.00000	4754.06800
0.30788	0.00000	4754.06800
0.31172	0.00000	4754.06800
0.31556	0.00000	4737.13200
0.31939	0.00000	4737.13200
0.32323	0.00000	4737.13200
0.32707	0.00000	4737.13200
0.33090	0.00000	4737.13200
0.33473	0.00000	4737.13200
0.33856	0.00000	4734.37500
0.34241	0.00000	4734.37500
0.34624	0.00000	4734.37500
0.35007	0.00000	4734.37500
0.35389	0.00000	4734.37500
0.35772	0.00000	4734.37500
0.36156	0.00000	4717.83100
0.36539	0.00000	4717.83100
0.36922	0.00000	4717.83100
0.37305	0.00000	4717.83100
0.37688	0.00000	4717.83100
0.38071	0.00000	4718.10100
0.38455	0.00000	4718.10100
0.38839	0.00000	4718.10100
0.39223	0.00000	4718.10100
0.39606	0.00000	4718.10100
0.39989	0.00000	4718.10100
0.40374	0.00000	4715.23700
0.40758	0.00000	4715.23700
0.41141	0.00000	4715.23700
0.41524	0.00000	4715.23700
0.41908	0.00000	4715.23700
0.42291	0.00000	4715.23700
0.42674	0.00000	4729.10500
0.43058	0.00000	4729.10500
0.43440	0.00000	4729.10500
0.43822	0.00000	4729.10500
0.44206	0.00000	4729.10500
0.44588	0.00000	4729.10500
0.44972	0.00000	4718.01000
0.45355	0.00000	4718.01000
0.45739	0.00000	4718.01000
0.46121	0.00000	4718.01000
0.46505	0.00000	4718.01000
0.46887	0.00000	4726.56200
0.47265	0.00000	4726.56200
0.47647	0.00000	4726.56200
0.48032	0.00000	4726.56200
0.48415	0.00000	4726.56200
0.48798	0.00000	4726.56200
0.49182	0.00000	4709.75500
0.49565	0.00000	4709.75500
0.49949	0.00000	4709.75500
0.50332	0.00000	4709.75500
0.50715	0.00000	4709.75500
0.51098	0.00000	4709.75500
0.51481	0.00000	4701.32700
0.51866	0.00000	4701.32700
0.52249	0.00000	4701.32700
0.52632	0.00000	4701.32700
0.53016	0.00000	4701.32700
0.53400	0.00000	4701.32700
0.53783	0.00000	4718.01000
0.54166	0.00000	4718.01000
0.54549	0.00000	4718.01000
0.54933	0.00000	4718.01000
0.55316	0.00000	4718.01000
0.55699	0.00000	4707.03100
0.56081	0.00000	4707.03100
0.56464	0.00000	4707.03100
0.56848	0.00000	4707.03100
0.57232	0.00000	4707.03100
0.57615	0.00000	4707.03100
0.58000	0.00000	4707.03100
0.58383	0.00000	4707.03100
0.58766	0.00000	4707.03100
0.59149	0.00000	4707.03100
0.59532	0.00000	4707.03100
0.59916	0.00000	4707.03100
0.60298	0.00000	4715.23700
0.60681	0.00000	4715.23700
0.61065	0.00000	4715.23700
0.61448	0.00000	4715.23700
0.61833	0.00000	4715.23700
0.62216	0.00000	4715.23700
0.62598	0.00000	4715.23700
0.62982	0.00000	4715.23700
0.63365	0.00000	4715.23700
0.63748	0.00000	4715.23700
0.64131	0.00000	4715.23700
0.64516	0.00000	4718.19200
0.64898	0.00000	4718.19200
0.65282	0.00000	4718.19200
0.65665	0.00000	4718.19200
0.66048	0.00000	4718.19200
0.66430	0.00000	4718.19200
0.66813	0.00000	4723.77200
0.67196	0.00000	4723.77200
0.67578	0.00000	4723.77200
0.67962	0.00000	4723.77200
0.68346	0.00000	4723.77200
0.68729	0.00000	4723.77200
0.69114	0.00000	4715.23700
0.69497	0.00000	4715.23700
0.69880	0.00000	4715.23700
0.70263	0.00000	4715.23700
0.70646	0.00000	4715.23700
0.71029	0.00000	4715.23700
0.71412	0.00000	4720.78400
0.71795	0.00000	4720.78400
0.72177	0.00000	4720.78400
0.72560	0.00000	4720.78400
0.72943	0.00000	4720.78400
0.73327	0.00000	4712.61200
0.73710	0.00000	4712.61200
0.74093	0.00000	4712.61200
0.74476	0.00000	4712.61200
0.74859	0.00000	4712.61200
0.75243	0.00000	4712.61200
0.75626	0.00000	4706.97300
0.76010	0.00000	4706.97300
0.76393	0.00000	4706.97300
0.76776	0.00000	4706.97300
0.77159	0.00000	4706.97300
0.77542	0.00000	4706.97300
0.77925	0.00000	4709.68900
0.78309	0.00000	4709.68900
0.78692	0.00000	4709.68900
0.79075	0.00000	4709.68900
0.79458	0.00000	4709.68900
0.79842	0.00000	4709.68900
0.80224	0.00000	4709.68900
0.80607	0.00000	4709.68900
0.80990	0.00000	4709.68900
0.81373	0.00000	4709.68900
0.81756	0.00000	4709.68900
0.82139	0.00000	4707.03100
0.82524	0.00000	4707.03100
0.82907	0.00000	4707.03100
0.83290	0.00000	4707.03100
0.83674	0.00000	4707.03100
0.84057	0.00000	4707.03100
0.84440	0.00000	4709.75500
0.84822	0.00000	4709.75500
0.85204	0.00000	4709.75500
0.85587	0.00000	4709.75500
0.85972	0.00000	4709.75500
0.86355	0.00000	4709.75500
0.86738	0.00000	4709.68900
0.87122	0.00000	4709.68900
0.87505	0.00000	4709.68900
0.87889	0.00000	4709.68900
0.88272	0.00000	4709.68900
0.88655	0.00000	4709.68900
0.89041	0.00000	4701.32700
0.89424	0.00000	4701.32700
0.89808	0.00000	4701.32700
0.90191	0.00000	4701.32700
0.90574	0.00000	4701.32700
0.90958	0.00000	4712.61200
0.91342	0.00000	4712.61200
0.91725	0.00000	4712.61200
0.92108	0.00000	4712.61200
0.92490	0.00000	4712.61200
0.92873	0.00000	4712.61200
0.93255	0.00000	4709.75500
0.93638	0.00000	4709.75500
0.94021	0.00000	4709.75500
0.94404	0.00000	4709.75500
0.94787	0.00000	4709.75500
0.95171	0.00000	4709.75500
0.95554	0.00000	4706.91500
0.95937	0.00000	4706.91500
0.96319	0.00000	4706.91500
0.96703	0.00000	4706.91500
0.97086	0.00000	4706.91500
0.97469	0.00000	4706.91500
0.97852	0.00000	4718.10100
0.98235	0.00000	4718.10100
0.98619	0.00000	4718.10100
0.99002	0.00000	4718.10100
0.99386	0.00000	4718.10100
0.99769	0.00000	4715.40200
1.00154	0.00000	4715.40200
1.00537	0.00000	4715.40200
1.00920	0.00000	4715.40200
1.01302	0.00000	4715.40200
1.01688	0.00000	4715.40200
1.02070	0.00000	4706.91500
1.02453	0.00000	4706.91500
1.02836	0.00000	4706.91500
1.03220	0.00000	4706.91500
1.03603	0.00000	4706.91500
1.03987	0.00000	4706.91500
1.04371	0.00000	4706.91500
1.04754	0.00000	4706.91500
1.05141	0.00000	4706.91500
1.05526	0.00000	4706.91500
1.05910	0.00000	4706.91500
1.06293	0.00000	4706.91500
1.06677	0.00000	4704.14200
1.07061	0.00000	4704.14200
1.07444	0.00000	4704.14200
1.07829	0.00000	4704.14200
1.08212	0.00000	4704.14200
1.08595	0.00000	4709.82100
1.08980	0.00000	4709.82100
1.09362	0.00000	4709.82100
1.09746	0.00000	4709.82100
1.10128	0.00000	4709.82100
1.10512	0.00000	4709.82100
1.10895	0.00000	4717.92000
1.11278	0.00000	4717.92000
1.11662	0.00000	4717.92000
1.12047	0.00000	4717.92000
1.12430	0.00000	4717.92000
1.12813	0.00000	4717.92000
1.13196	0.00000	4701.32700
1.13580	0.00000	4701.32700
1.13963	0.00000	4701.32700
1.14346	0.00000	4701.32700
1.14729	0.00000	4701.32700
1.15111	0.00000	4701.32700
1.15494	0.00000	4709.68900
1.15877	0.00000	4709.68900
1.16260	0.00000	4709.68900
1.16643	0.00000	4709.68900
1.17027	0.00000	4709.68900
1.17410	0.00000	4712.61200
1.17793	0.00000	4712.61200
1.18176	0.00000	4712.61200
1.18560	0.00000	4712.61200
1.18943	0.00000	4712.61200
1.19327	0.00000	4712.61200
1.19711	0.00000	4723.55700
1.20093	0.00000	4723.55700
1.20477	0.00000	4723.55700
1.20861	0.00000	4723.55700
1.21245	0.00000	4723.55700
1.21629	0.00000	4723.55700
1.22012	0.00000	4709.68900
1.22395	0.00000	4709.68900
1.22778	0.00000	4709.68900
1.23162	0.00000	4709.68900
1.23544	0.00000	4709.68900
1.23928	0.00000	4709.68900
1.24311	0.00000	4715.15500
1.24694	0.00000	4715.15500
1.25078	0.00000	4715.15500
1.25461	0.00000	4715.15500
1.25845	0.00000	4715.15500
1.26227	0.00000	4723.77200
1.26613	0.00000	4723.77200
1.26997	0.00000	4723.77200
1.27380	0.00000	4723.77200
1.27764	0.00000	4723.77200
1.28149	0.00000	4723.77200
1.28533	0.00000	4715.23700
1.28916	0.00000	4715.23700
1.29299	0.00000	4715.23700
1.29682	0.00000	4715.23700
1.30065	0.00000	4715.23700
1.30449	0.00000	4715.23700
1.30831	0.00000	4718.01000
1.31214	0.00000	4718.01000
1.31598	0.00000	4718.01000
1.31981	0.00000	4718.01000
1.32365	0.00000	4718.01000
1.32748	0.00000	4718.01000
1.33132	0.00000	4717.92000
1.33515	0.00000	4717.92000
1.33898	0.00000	4717.92000
1.34281	0.00000	4717.92000
1.34665	0.00000	4717.92000
1.35048	0.00000	4715.40200
1.35432	0.00000	4715.40200
1.35817	0.00000	4715.40200
1.36200	0.00000	4715.40200
1.36583	0.00000	4715.40200
1.36967	0.00000	4715.40200
1.37349	0.00000	4709.62300
1.37733	0.00000	4709.62300
1.38116	0.00000	4709.62300
1.38500	0.00000	4709.62300
1.38883	0.00000	4709.62300
1.39265	0.00000	4709.62300
1.39647	0.00000	4712.46300
1.40029	0.00000	4712.46300
1.40413	0.00000	4712.46300
1.40796	0.00000	4712.46300
1.41179	0.00000	4712.46300
1.41562	0.00000	4712.46300
1.41945	0.00000	4709.62300
1.42328	0.00000	4709.62300
1.42711	0.00000	4709.62300
1.43094	0.00000	4709.62300
1.43477	0.00000	4709.62300
1.43860	0.00000	4718.19200
1.44245	0.00000	4718.19200
1.44629	0.00000	4718.19200
1.45011	0.00000	4718.19200
1.45395	0.00000	4718.19200
1.45778	0.00000	4718.19200
1.46161	0.00000	4712.46300
1.46545	0.00000	4712.46300
1.46928	0.00000	4712.46300
1.47311	0.00000	4712.46300
1.47695	0.00000	4712.46300
1.48078	0.00000	4712.46300
1.48461	0.00000	4718.01000
1.48846	0.00000	4718.01000
1.49228	0.00000	4718.01000
1.49610	0.00000	4718.01000
1.49992	0.00000	4718.01000
1.50373	0.00000	4718.01000
1.50755	0.00000	4712.46300
1.51138	0.00000	4712.46300
1.51520	0.00000	4712.46300
1.51902	0.00000	4712.46300
1.52285	0.00000	4712.46300
1.52666	0.00000	4726.56200
1.53050	0.00000	4726.56200
1.53432	0.00000	4726.56200
1.53815	0.00000	4726.56200
1.54197	0.00000	4726.56200
1.54580	0.00000	4726.56200
1.54963	0.00000	4712.53700
1.55346	0.00000	4712.53700
1.55727	0.00000	4712.53700
1.56110	0.00000	4712.53700
1.56494	0.00000	4712.53700
1.56876	0.00000	4712.53700
1.57258	0.00000	4720.78400
1.57641	0.00000	4720.78400
1.58023	0.00000	4720.78400
1.58405	0.00000	4720.78400
1.58789	0.00000	4720.78400
1.59173	0.00000	4720.78400
1.59556	0.00000	4709.68900
1.59939	0.00000	4709.68900
1.60323	0.00000	4709.68900
1.60705	0.00000	4709.68900
1.61089	0.00000	4709.68900
1.61472	0.00000	4715.40200
1.61856	0.00000	4715.40200
1.62240	0.00000	4715.40200
1.62623	0.00000	4715.40200
1.63007	0.00000	4715.40200
1.63390	0.00000	4715.40200
1.63774	0.00000	4715.23700
1.64158	0.00000	4715.23700
1.64540	0.00000	4715.23700
1.64924	0.00000	4715.23700
1.65307	0.00000	4715.23700
1.65689	0.00000	4715.23700
1.66073	0.00000	4698.56200
1.66458	0.00000	4698.56200
1.66840	0.00000	4698.56200
1.67223	0.00000	4698.56200
1.67606	0.00000	4698.56200
1.67990	0.00000	4698.56200
1.68373	0.00000	4704.09300
1.68757	0.00000	4704.09300
1.69141	0.00000	4704.09300
1.69523	0.00000	4704.09300
1.69906	0.00000	4704.09300
1.70290	0.00000	4718.19200
1.70674	0.00000	4718.19200
1.71056	0.00000	4718.19200
1.71440	0.00000	4718.19200
1.71824	0.00000	4718.19200
1.72207	0.00000	4718.19200
1.72590	0.00000	4712.53700
1.72973	0.00000	4712.53700
1.73356	0.00000	4712.53700
1.73740	0.00000	4712.53700
1.74123	0.00000	4712.53700
1.74506	0.00000	4712.53700
1.74889	0.00000	4706.91500
1.75272	0.00000	4706.91500
1.75656	0.00000	4706.91500
1.76038	0.00000	4706.91500
1.76420	0.00000	4706.91500
1.76804	0.00000	4706.91500
1.77185	0.00000	4712.46300
1.77568	0.00000	4712.46300
1.77951	0.00000	4712.46300
1.78335	0.00000	4712.46300
1.78717	0.00000	4712.46300
1.79101	0.00000	4715.40200
1.79484	0.00000	4715.40200
1.79920	0.00000	4715.40200
1.80316	0.00000	4715.40200
1.80705	0.00000	4715.40200
1.81089	0.00000	4715.40200
1.81473	0.00000	4715.31900
1.81859	0.00000	4715.31900
1.82305	0.00000	4715.31900
1.82709	0.00000	4715.31900
1.83099	0.00000	4715.31900
1.83484	0.00000	4707.03100
1.83870	0.00000	4707.03100
1.84255	0.00000	4707.03100
1.84639	0.00000	4707.03100
1.85022	0.00000	4707.03100
1.85406	0.00000	4707.03100
1.85789	0.00000	4706.97300
1.86174	0.00000	4706.97300
1.86559	0.00000	4706.97300
1.86956	0.00000	4706.97300
1.87342	0.00000	4706.97300
1.87726	0.00000	4706.97300
1.88110	0.00000	4698.59400
1.88494	0.00000	4698.59400
1.88878	0.00000	4698.59400
1.89261	0.00000	4698.59400
1.89644	0.00000	4698.59400
1.90028	0.00000	4698.59400
1.90413	0.00000	4715.23700
1.90795	0.00000	4715.23700
1.91178	0.00000	4715.23700
1.91560	0.00000	4715.23700
1.91943	0.00000	4715.23700
1.92327	0.00000	4712.61200
1.92712	0.00000	4712.61200
1.93095	0.00000	4712.61200
1.93478	0.00000	4712.61200
1.93860	0.00000	4712.61200
1.94243	0.00000	4712.61200
1.94625	0.00000	4704.14200
1.95009	0.00000	4704.14200
1.95391	0.00000	4704.14200
1.95773	0.00000	4704.14200
1.96158	0.00000	4704.14200
1.96541	0.00000	4704.14200
1.96924	0.00000	4723.55700
1.97307	0.00000	4723.55700
1.97689	0.00000	4723.55700
1.98072	0.00000	4723.55700
1.98457	0.00000	4723.55700
1.98841	0.00000	4723.55700
1.99225	0.00000	4712.53700
1.99608	0.00000	4712.53700
1.99991	0.00000	4712.53700
2.00374	0.00000	4712.53700
2.00756	0.00000	4712.53700
2.01140	0.00000	4709.82100
2.01524	0.00000	4709.82100
2.01907	0.00000	4709.82100
2.02291	0.00000	4709.82100
2.02675	0.00000	4709.82100
2.03058	0.00000	4709.82100
2.03442	0.00000	4715.31900
2.03825	0.00000	4715.31900
2.04208	0.00000	4715.31900
2.04592	0.00000	4715.31900
2.04974	0.00000	4715.31900
2.05357	0.00000	4715.31900
2.05740	0.00000	4698.59400
2.06125	0.00000	4698.59400
2.06507	0.00000	4698.59400
2.06890	0.00000	4698.59400
2.07273	0.00000	4698.59400
2.07656	0.00000	4698.59400
2.08039	0.00000	4698.59400
2.08422	0.00000	4698.59400
2.08804	0.00000	4698.59400
2.09187	0.00000	4698.59400
2.09569	0.00000	4698.59400
2.09952	0.00000	4712.61200
2.10336	0.00000	4712.61200
2.10718	0.00000	4712.61200
2.11101	0.00000	4712.61200
2.11483	0.00000	4712.61200
2.11867	0.00000	4712.61200
2.12249	0.00000	4701.36800
2.12633	0.00000	4701.36800
2.13016	0.00000	4701.36800
2.13400	0.00000	4701.36800
2.13782	0.00000	4701.36800
2.14165	0.00000	4701.36800
2.14548	0.00000	4693.04700
2.14930	0.00000	4693.04700
2.15313	0.00000	4693.04700
2.15696	0.00000	4693.04700
2.16079	0.00000	4693.04700
2.16462	0.00000	4693.04700
2.16846	0.00000	4712.53700
2.17228	0.00000	4712.53700
2.17612	0.00000	4712.53700
2.17996	0.00000	4712.53700
2.18380	0.00000	4712.53700
2.18763	0.00000	4718.28300
2.19146	0.00000	4718.28300
2.19528	0.00000	4718.28300
2.19911	0.00000	4718.28300
2.20295	0.00000	4718.28300
2.20678	0.00000	4718.28300
2.21060	0.00000	4701.40900
2.21443	0.00000	4701.40900
2.21826	0.00000	4701.40900
2.22210	0.00000	4701.40900
2.22592	0.00000	4701.40900
2.22975	0.00000	4701.40900
2.23359	0.00000	4704.14200
2.23742	0.00000	4704.14200
2.24125	0.00000	4704.14200
2.24508	0.00000	4704.14200
2.24891	0.00000	4704.14200
2.25274	0.00000	4704.14200
2.25656	0.00000	4707.03100
2.26040	0.00000	4707.03100
2.26422	0.00000	4707.03100
2.26804	0.00000	4707.03100
2.27187	0.00000	4707.03100
2.27569	0.00000	4707.08900
2.27954	0.00000	4707.08900
2.28336	0.00000	4707.08900
2.28719	0.00000	4707.08900
2.29102	0.00000	4707.08900
2.29484	0.00000	4707.08900
2.29867	0.00000	4706.97300
2.30251	0.00000	4706.97300
2.30633	0.00000	4706.97300
2.31016	0.00000	4706.97300
2.31399	0.00000	4706.97300
2.31782	0.00000	4706.97300
2.32165	0.00000	4704.19100
2.32549	0.00000	4704.19100
2.32932	0.00000	4704.19100
2.33314	0.00000	4704.19100
2.33697	0.00000	4704.19100
2.34080	0.00000	4704.24100
2.34462	0.00000	4704.24100
2.34847	0.00000	4704.24100
2.35229	0.00000	4704.24100
2.35612	0.00000	4704.24100
2.35995	0.00000	4704.24100
2.36378	0.00000	4695.87000
2.36762	0.00000	4695.87000
2.37145	0.00000	4695.87000
2.37529	0.00000	4695.87000
2.37913	0.00000	4695.87000
2.38297	0.00000	4695.87000
2.38680	0.00000	4693.04700
2.39063	0.00000	4693.04700
2.39446	0.00000	4693.04700
2.39830	0.00000	4693.04700
2.40213	0.00000	4693.04700
2.40596	0.00000	4693.04700
2.40979	0.00000	4715.31900
2.41361	0.00000	4715.31900
2.41745	0.00000	4715.31900
2.42129	0.00000	4715.31900
2.42511	0.00000	4715.31900
2.42894	0.00000	4707.08900
2.43278	0.00000	4707.08900
2.43662	0.00000	4707.08900
2.44045	0.00000	4707.08900
2.44429	0.00000	4707.08900
2.44812	0.00000	4707.08900
2.45195	0.00000	4698.66000
2.45577	0.00000	4698.66000
2.45960	0.00000	4698.66000
2.46343	0.00000	4698.66000
2.46727	0.00000	4698.66000
2.47110	0.00000	4698.66000
2.47493	0.00000	4698.62700
2.47875	0.00000	4698.62700
2.48258	0.00000	4698.62700
2.48641	0.00000	4698.62700
2.49024	0.00000	4698.62700
2.49407	0.00000	4698.62700
2.49791	0.00000	4704.19100
2.50174	0.00000	4704.19100
2.50558	0.00000	4704.19100
2.50941	0.00000	4704.19100
2.51324	0.00000	4704.19100
2.51707	0.00000	4701.49200
2.52094	0.00000	4701.49200
2.52478	0.00000	4701.49200
2.52863	0.00000	4701.49200
2.53247	0.00000	4701.49200
2.53631	0.00000	4701.49200
2.54016	0.00000	4706.91500
2.54400	0.00000	4706.91500
2.54782	0.00000	4706.91500
2.55165	0.00000	4706.91500
2.55549	0.00000	4706.91500
2.55932	0.00000	4706.91500
2.56316	0.00000	4698.59400
2.56699	0.00000	4698.59400
2.57081	0.00000	4698.59400
2.57464	0.00000	4698.59400
2.57847	0.00000	4698.59400
2.58231	0.00000	4698.59400
2.58614	0.00000	4693.06400
2.58997	0.00000	4693.06400
2.59381	0.00000	4693.06400
2.59764	0.00000	4693.06400
2.60146	0.00000	4693.06400
2.60530	0.00000	4695.89500
2.60913	0.00000	4695.89500
2.61298	0.00000	4695.89500
2.61681	0.00000	4695.89500
2.62065	0.00000	4695.89500
2.62449	0.00000	4695.89500
2.62832	0.00000	4695.82100
2.63215	0.00000	4695.82100
2.63598	0.00000	4695.82100
2.63980	0.00000	4695.82100
2.64362	0.00000	4695.82100
2.64745	0.00000	4695.82100
2.65129	0.00000	4698.62700
2.65512	0.00000	4698.62700
2.65895	0.00000	4698.62700
2.66278	0.00000	4698.62700
2.66662	0.00000	4698.62700
2.67045	0.00000	4695.89500
2.67427	0.00000	4695.89500
2.67812	0.00000	4695.89500
2.68195	0.00000	4695.89500
2.68579	0.00000	4695.89500
2.68962	0.00000	4695.89500
2.69346	0.00000	4695.89500
2.69728	0.00000	4695.89500
2.70111	0.00000	4695.89500
2.70495	0.00000	4695.89500
2.70878	0.00000	4695.89500
2.71261	0.00000	4695.89500
2.71643	0.00000	4695.84500
2.72027	0.00000	4695.84500
2.72411	0.00000	4695.84500
2.72794	0.00000	4695.84500
2.73178	0.00000	4695.84500
2.73561	0.00000	4695.84500
2.73943	0.00000	4698.62700
2.74327	0.00000	4698.62700
2.74710	0.00000	4698.62700
2.75093	0.00000	4698.62700
2.75476	0.00000	4698.62700
2.75860	0.00000	4701.49200
2.76246	0.00000	4701.49200
2.76629	0.00000	4701.49200
2.77012	0.00000	4701.49200
2.77396	0.00000	4701.49200
2.77778	0.00000	4701.49200
2.78161	0.00000	4701.40900
2.78543	0.00000	4701.40900
2.78926	0.00000	4701.40900
2.79310	0.00000	4701.40900
2.79693	0.00000	4701.40900
2.80076	0.00000	4701.40900
2.80460	0.00000	4693.06400
2.80843	0.00000	4693.06400
2.81227	0.00000	4693.06400
2.81609	0.00000	4693.06400
2.81992	0.00000	4693.06400
2.82375	0.00000	4693.06400
2.82758	0.00000	4687.50000
2.83141	0.00000	4687.50000
2.83524	0.00000	4687.50000
2.83906	0.00000	4687.50000
2.84289	0.00000	4687.50000
2.84671	0.00000	4695.89500
2.85057	0.00000	4695.89500
2.85440	0.00000	4695.89500
2.85823	0.00000	4695.89500
2.86206	0.00000	4695.89500
2.86589	0.00000	4695.89500
2.86972	0.00000	4706.97300
2.87354	0.00000	4706.97300
2.87738	0.00000	4706.97300
2.88121	0.00000	4706.97300
2.88504	0.00000	4706.97300
2.88888	0.00000	4706.97300
2.89270	0.00000	4687.50000
2.89655	0.00000	4687.50000
2.90039	0.00000	4687.50000
2.90421	0.00000	4687.50000
2.90805	0.00000	4687.50000
2.91188	0.00000	4695.89500
2.91571	0.00000	4695.89500
2.91954	0.00000	4695.89500
2.92337	0.00000	4695.89500
2.92720	0.00000	4695.89500
2.93102	0.00000	4695.89500
2.93484	0.00000	4698.69400
2.93868	0.00000	4698.69400
2.94251	0.00000	4698.69400
2.94634	0.00000	4698.69400
2.95016	0.00000	4698.69400
2.95398	0.00000	4698.69400
2.95781	0.00000	4684.71800
2.96164	0.00000	4684.71800
2.96547	0.00000	4684.71800
2.96931	0.00000	4684.71800
2.97315	0.00000	4684.71800
2.97698	0.00000	4684.71800
2.98081	0.00000	4695.84500
2.98465	0.00000	4695.84500
2.98847	0.00000	4695.84500
2.99229	0.00000	4695.84500
2.99613	0.00000	4695.84500
2.99996	0.00000	4693.09600
3.00380	0.00000	4693.09600
3.00763	0.00000	4693.09600
3.01145	0.00000	4693.09600
3.01529	0.00000	4693.09600
3.01912	0.00000	4693.09600
3.02294	0.00000	4695.87000
3.02677	0.00000	4695.87000
3.03061	0.00000	4695.87000
3.03444	0.00000	4695.87000
3.03828	0.00000	4695.87000
3.04210	0.00000	4695.87000
3.04592	0.00000	4698.62700
3.04976	0.00000	4698.62700
3.05359	0.00000	4698.62700
3.05742	0.00000	4698.62700
3.06124	0.00000	4698.62700
3.06507	0.00000	4698.62700
3.06889	0.00000	4693.08000
3.07273	0.00000	4693.08000
3.07656	0.00000	4693.08000
3.08039	0.00000	4693.08000
3.08422	0.00000	4693.08000
3.08805	0.00000	4693.09600
3.09189	0.00000	4693.09600
3.09571	0.00000	4693.09600
3.09954	0.00000	4693.09600
3.10337	0.00000	4693.09600
3.10720	0.00000	4693.09600
3.11103	0.00000	4693.06400
3.11486	0.00000	4693.06400
3.11870	0.00000	4693.06400
3.12253	0.00000	4693.06400
3.12636	0.00000	4693.06400
3.13020	0.00000	4693.06400
3.13403	0.00000	4706.97300
3.13785	0.00000	4706.97300
3.14169	0.00000	4706.97300
3.14551	0.00000	4706.97300
3.14935	0.00000	4706.97300
3.15318	0.00000	4706.97300
3.15700	0.00000	4693.08000
3.16084	0.00000	4693.08000
3.16465	0.00000	4693.08000
3.16848	0.00000	4693.08000
3.17231	0.00000	4693.08000
3.17613	0.00000	4693.09600
3.17997	0.00000	4693.09600
3.18380	0.00000	4693.09600
3.18763	0.00000	4693.09600
3.19147	0.00000	4693.09600
3.19530	0.00000	4693.09600
3.19913	0.00000	4690.28100
3.20297	0.00000	4690.28100
3.20681	0.00000	4690.28100
3.21064	0.00000	4690.28100
3.21447	0.00000	4690.28100
3.21829	0.00000	4690.28100
3.22211	0.00000	4701.40900
3.22594	0.00000	4701.40900
3.22977	0.00000	4701.40900
3.23360	0.00000	4701.40900
3.23742	0.00000	4701.40900
3.24126	0.00000	4707.14800
3.24508	0.00000	4707.14800
3.24892	0.00000	4707.14800
3.25274	0.00000	4707.14800
3.25656	0.00000	4707.14800
3.26039	0.00000	4707.14800
3.26421	0.00000	4704.29100
3.26804	0.00000	4704.29100
3.27188	0.00000	4704.29100
3.27571	0.00000	4704.29100
3.27956	0.00000	4704.29100
3.28339	0.00000	4704.29100
3.28723	0.00000	4698.62700
3.29105	0.00000	4698.62700
3.29488	0.00000	4698.62700
3.29871	0.00000	4698.62700
3.30254	0.00000	4698.62700
3.30638	0.00000	4698.62700
3.31021	0.00000	4698.62700
3.31405	0.00000	4698.62700
3.31787	0.00000	4698.62700
3.32170	0.00000	4698.62700
3.32553	0.00000	4698.62700
3.32937	0.00000	4693.09600
3.33321	0.00000	4693.09600
3.33704	0.00000	4693.09600
3.34086	0.00000	4693.09600
3.34465	0.00000	4693.09600
3.34848	0.00000	4693.09600
3.35230	0.00000	4690.29000
3.35612	0.00000	4690.29000
3.35996	0.00000	4690.29000
3.36379	0.00000	4690.29000
3.36763	0.00000	4690.29000
3.37145	0.00000	4690.29000
3.37528	0.00000	4698.66000
3.37910	0.00000	4698.66000
3.38293	0.00000	4698.66000
3.38677	0.00000	4698.66000
3.39060	0.00000	4698.66000
3.39443	0.00000	4698.66000
3.39826	0.00000	4693.08000
3.40209	0.00000	4693.08000
3.40593	0.00000	4693.08000
3.40975	0.00000	4693.08000
3.41357	0.00000	4693.08000
3.41741	0.00000	4695.89500
3.42123	0.00000	4695.89500
3.42506	0.00000	4695.89500
3.42889	0.00000	4695.89500
3.43272	0.00000	4695.89500
3.43655	0.00000	4695.89500
3.44038	0.00000	4690.28100
3.44422	0.00000	4690.28100
3.44805	0.00000	4690.28100
3.45188	0.00000	4690.28100
3.45571	0.00000	4690.28100
3.45954	0.00000	4690.28100
3.46338	0.00000	4695.84500
3.46722	0.00000	4695.84500
3.47106	0.00000	4695.84500
3.47489	0.00000	4695.84500
3.47872	0.00000	4695.84500
3.48254	0.00000	4687.50000
3.48636	0.00000	4687.50000
3.49020	0.00000	4687.50000
3.49404	0.00000	4687.50000
3.49787	0.00000	4687.50000
3.50170	0.00000	4687.50000
3.50553	0.00000	4701.49200
3.50936	0.00000	4701.49200
3.51319	0.00000	4701.49200
3.51702	0.00000	4701.49200
3.52085	0.00000	4701.49200
3.52465	0.00000	4701.49200
3.52847	0.00000	4693.06400
3.53230	0.00000	4693.06400
3.53612	0.00000	4693.06400
3.53995	0.00000	4693.06400
3.54379	0.00000	4693.06400
3.54761	0.00000	4693.06400
3.55144	0.00000	4695.84500
3.55527	0.00000	4695.84500
3.55910	0.00000	4695.84500
3.56293	0.00000	4695.84500
3.56676	0.00000	4695.84500
3.57059	0.00000	4701.53400
3.57443	0.00000	4701.53400
3.57827	0.00000	4701.53400
3.58210	0.00000	4701.53400
3.58593	0.00000	4701.53400
3.58976	0.00000	4701.53400
3.59359	0.00000	4695.84500
3.59741	0.00000	4695.84500
3.60125	0.00000	4695.84500
3.60508	0.00000	4695.84500
3.60891	0.00000	4695.84500
3.61274	0.00000	4695.84500
3.61657	0.00000	4695.84500
3.62040	0.00000	4695.84500
3.62422	0.00000	4695.84500
3.62806	0.00000	4695.84500
3.63189	0.00000	4695.84500
3.63572	0.00000	4695.84500
3.63954	0.00000	4690.29000
3.64337	0.00000	4690.29000
3.64719	0.00000	4690.29000
3.65103	0.00000	4690.29000
3.65486	0.00000	4690.29000
3.65869	0.00000	4690.29800
3.66251	0.00000	4690.29800
3.66635	0.00000	4690.29800
3.67018	0.00000	4690.29800
3.67400	0.00000	4690.29800
3.67784	0.00000	4690.29800
3.68166	0.00000	4687.50000
3.68549	0.00000	4687.50000
3.68932	0.00000	4687.50000
3.69315	0.00000	4687.50000
3.69698	0.00000	4687.50000
3.70080	0.00000	4687.50000
3.70464	0.00000	4695.84500
3.70848	0.00000	4695.84500
3.71231	0.00000	4695.84500
3.71614	0.00000	4695.84500
3.71996	0.00000	4695.84500
3.72380	0.00000	4690.29000
3.72763	0.00000	4690.29000
3.73147	0.00000	4690.29000
3.73530	0.00000	4690.29000
3.73913	0.00000	4690.29000
3.74295	0.00000	4690.29000
3.74678	0.00000	4687.50000
3.75062	0.00000	4687.50000
3.75444	0.00000	4687.50000
3.75827	0.00000	4687.50000
3.76209	0.00000	4687.50000
3.76593	0.00000	4687.50000
3.76976	0.00000	4704.19100
3.77359	0.00000	4704.19100
3.77741	0.00000	4704.19100
3.78124	0.00000	4704.19100
3.78507	0.00000	4704.19100
3.78889	0.00000	4704.19100
3.79273	0.00000	4698.66000
3.79655	0.00000	4698.66000
3.80037	0.00000	4698.66000
3.80421	0.00000	4698.66000
3.80804	0.00000	4698.66000
3.81187	0.00000	4707.08900
3.81571	0.00000	4707.08900
3.81954	0.00000	4707.08900
3.82337	0.00000	4707.08900
3.82721	0.00000	4707.08900
3.83104	0.00000	4707.08900
3.83487	0.00000	4693.08000
3.83870	0.00000	4693.08000
3.84254	0.00000	4693.08000
3.84637	0.00000	4693.08000
3.85020	0.00000	4693.08000
3.85404	0.00000	4693.08000
3.85787	0.00000	4712.53700
3.86170	0.00000	4712.53700
3.86553	0.00000	4712.53700
3.86936	0.00000	4712.53700
3.87320	0.00000	4712.53700
3.87703	0.00000	4712.53700
3.88086	0.00000	4695.84500
3.88465	0.00000	4695.84500
3.88847	0.00000	4695.84500
3.89230	0.00000	4695.84500
3.89613	0.00000	4695.84500
3.89996	0.00000	4695.89500
3.90380	0.00000	4695.89500
3.90764	0.00000	4695.89500
3.91146	0.00000	4695.89500
3.91529	0.00000	4695.89500
3.91912	0.00000	4695.89500
3.92296	0.00000	4695.84500
3.92679	0.00000	4695.84500
3.93062	0.00000	4695.84500
3.93445	0.00000	4695.84500
3.93828	0.00000	4695.84500
3.94212	0.00000	4695.84500
3.94595	0.00000	4709.75500
3.94978	0.00000	4709.75500
3.95361	0.00000	4709.75500
3.95744	0.00000	4709.75500
3.96128	0.00000	4709.75500
3.96511	0.00000	4709.75500
3.96894	0.00000	4701.45100
3.97277	0.00000	4701.45100
3.97661	0.00000	4701.45100
3.98045	0.00000	4701.45100
3.98427	0.00000	4701.45100
3.98810	0.00000	4698.69400
3.99193	0.00000	4698.69400
3.99576	0.00000	4698.69400
3.99959	0.00000	4698.69400
4.00342	0.00000	4698.69400
4.00725	0.00000	4698.69400
4.01108	0.00000	4695.82100
4.01491	0.00000	4695.82100
4.01875	0.00000	4695.82100
4.02258	0.00000	4695.82100
4.02641	0.00000	4695.82100
4.03024	0.00000	4695.82100
4.03406	0.00000	4698.62700
4.03790	0.00000	4698.62700
4.04173	0.00000	4698.62700
4.04556	0.00000	4698.62700
4.04939	0.00000	4698.62700
4.05321	0.00000	4687.50000
4.05704	0.00000	4687.50000
4.06087	0.00000	4687.50000
4.06471	0.00000	4687.50000
4.06854	0.00000	4687.50000
4.07237	0.00000	4687.50000
4.07620	0.00000	4704.24100
4.08004	0.00000	4704.24100
4.08386	0.00000	4704.24100
4.08770	0.00000	4704.24100
4.09153	0.00000	4704.24100
4.09536	0.00000	4704.24100
4.09919	0.00000	4687.50000
4.10302	0.00000	4687.50000
4.10685	0.00000	4687.50000
4.11067	0.00000	4687.50000
4.11451	0.00000	4687.50000
4.11834	0.00000	4687.50000
4.12217	0.00000	4687.50000
4.12600	0.00000	4687.50000
4.12983	0.00000	4687.50000
4.13366	0.00000	4687.50000
4.13750	0.00000	4687.50000
4.14132	0.00000	4698.69400
4.14517	0.00000	4698.69400
4.14900	0.00000	4698.69400
4.15283	0.00000	4698.69400
4.15665	0.00000	4698.69400
4.16048	0.00000	4698.69400
4.16431	0.00000	4698.66000
4.16815	0.00000	4698.66000
4.17198	0.00000	4698.66000
4.17582	0.00000	4698.66000
4.17965	0.00000	4698.66000
4.18347	0.00000	4698.66000
4.18729	0.00000	4695.82100
4.19112	0.00000	4695.82100
4.19495	0.00000	4695.82100
4.19878	0.00000	4695.82100
4.20261	0.00000	4695.82100
4.20643	0.00000	4695.82100
4.21027	0.00000	4695.84500
4.21410	0.00000	4695.84500
4.21793	0.00000	4695.84500
4.22176	0.00000	4695.84500
4.22559	0.00000	4695.84500
4.22942	0.00000	4704.34100
4.23325	0.00000	4704.34100
4.23708	0.00000	4704.34100
4.24091	0.00000	4704.34100
4.24475	0.00000	4704.34100
4.24857	0.00000	4704.34100
4.25242	0.00000	4693.04700
4.25625	0.00000	4693.04700
4.26008	0.00000	4693.04700
4.26391	0.00000	4693.04700
4.26774	0.00000	4693.04700
4.27158	0.00000	4693.04700
4.27541	0.00000	4695.82100
4.27924	0.00000	4695.82100
4.28306	0.00000	4695.82100
4.28689	0.00000	4695.82100
4.29073	0.00000	4695.82100
4.29457	0.00000	4695.82100
4.29840	0.00000	4715.40200
4.30223	0.00000	4715.40200
4.30606	0.00000	4715.40200
4.30990	0.00000	4715.40200
4.31373	0.00000	4715.40200
4.31756	0.00000	4695.87000
4.32138	0.00000	4695.87000
4.32522	0.00000	4695.87000
4.32906	0.00000	4695.87000
4.33289	0.00000	4695.87000
4.33672	0.00000	4695.87000
4.34055	0.00000	4687.50000
4.34437	0.00000	4687.50000
4.34820	0.00000	4687.50000
4.35204	0.00000	4687.50000
4.35588	0.00000	4687.50000
4.35971	0.00000	4687.50000
4.36354	0.00000	4695.82100
4.36737	0.00000	4695.82100
4.37121	0.00000	4695.82100
4.37504	0.00000	4695.82100
4.37887	0.00000	4695.82100
4.38270	0.00000	4684.70100
4.38653	0.00000	4684.70100
4.39035	0.00000	4684.70100
4.39418	0.00000	4684.70100
4.39802	0.00000	4684.70100
4.40184	0.00000	4684.70100
4.40567	0.00000	4693.08000
4.40951	0.00000	4693.08000
4.41334	0.00000	4693.08000
4.41717	0.00000	4693.08000
4.42100	0.00000	4693.08000
4.42483	0.00000	4693.08000
4.42865	0.00000	4704.24100
4.43247	0.00000	4704.24100
4.43630	0.00000	4704.24100
4.44013	0.00000	4704.24100
4.44398	0.00000	4704.24100
4.44781	0.00000	4704.24100
4.45164	0.00000	4709.75500
4.45548	0.00000	4709.75500
4.45931	0.00000	4709.75500
4.46314	0.00000	4709.75500
4.46697	0.00000	4709.75500
4.47080	0.00000	4704.29100
4.47465	0.00000	4704.29100
4.47847	0.00000	4704.29100
4.48230	0.00000	4704.29100
4.48613	0.00000	4704.29100
4.48996	0.00000	4704.29100
4.49381	0.00000	4695.84500
4.49764	0.00000	4695.84500
4.50147	0.00000	4695.84500
4.50531	0.00000	4695.84500
4.50916	0.00000	4695.84500
4.51298	0.00000	4695.84500
4.51681	0.00000	4701.40900
4.52065	0.00000	4701.40900
4.52448	0.00000	4701.40900
4.52830	0.00000	4701.40900
4.53214	0.00000	4701.40900
4.53596	0.00000	4701.40900
4.53979	0.00000	4693.06400
4.54361	0.00000	4693.06400
4.54744	0.00000	4693.06400
4.55127	0.00000	4693.06400
4.55510	0.00000	4693.06400
4.55893	0.00000	4701.49200
4.56276	0.00000	4701.49200
4.56661	0.00000	4701.49200
4.57045	0.00000	4701.49200
4.57428	0.00000	4701.49200
4.57811	0.00000	4701.49200
4.58194	0.00000	4698.62700
4.58577	0.00000	4698.62700
4.58961	0.00000	4698.62700
4.59344	0.00000	4698.62700
4.59726	0.00000	4698.62700
4.60109	0.00000	4698.62700
4.60492	0.00000	4709.75500
4.60876	0.00000	4709.75500
4.61260	0.00000	4709.75500
4.61643	0.00000	4709.75500
4.62026	0.00000	4709.75500
4.62408	0.00000	4709.75500
4.62790	0.00000	4695.87000
4.63174	0.00000	4695.87000
4.63557	0.00000	4695.87000
4.63941	0.00000	4695.87000
4.64324	0.00000	4695.87000
4.64707	0.00000	4704.29100
4.65090	0.00000	4704.29100
4.65473	0.00000	4704.29100
4.65856	0.00000	4704.29100
4.66238	0.00000	4704.29100
4.66620	0.00000	4704.29100
4.67003	0.00000	4706.97300
4.67386	0.00000	4706.97300
4.67769	0.00000	4706.97300
4.68152	0.00000	4706.97300
4.68535	0.00000	4706.97300
4.68919	0.00000	4706.97300
4.69302	0.00000	4698.62700
4.69686	0.00000	4698.62700
4.70065	0.00000	4698.62700
4.70448	0.00000	4698.62700
4.70831	0.00000	4698.62700
4.71214	0.00000	4684.70900
4.71597	0.00000	4684.70900
4.71979	0.00000	4684.70900
4.72363	0.00000	4684.70900
4.72746	0.00000	4684.70900
4.73129	0.00000	4684.70900
4.73513	0.00000	4701.45100
4.73895	0.00000	4701.45100
4.74278	0.00000	4701.45100
4.74662	0.00000	4701.45100
4.75045	0.00000	4701.45100
4.75427	0.00000	4701.45100
4.75811	0.00000	4687.50000
4.76194	0.00000	4687.50000
4.76578	0.00000	4687.50000
4.76961	0.00000	4687.50000
4.77344	0.00000	4687.50000
4.77727	0.00000	4687.50000
4.78111	0.00000	4701.40900
4.78494	0.00000	4701.40900
4.78877	0.00000	4701.40900
4.79260	0.00000	4701.40900
4.79643	0.00000	4701.40900
4.80025	0.00000	4701.49200
4.80411	0.00000	4701.49200
4.80794	0.00000	4701.49200
4.81177	0.00000	4701.49200
4.81561	0.00000	4701.49200
4.81945	0.00000	4701.49200
4.82329	0.00000	4690.28100
4.82712	0.00000	4690.28100
4.83095	0.00000	4690.28100
4.83477	0.00000	4690.28100
4.83859	0.00000	4690.28100
4.84243	0.00000	4690.28100
4.84628	0.00000	4698.59400
4.85011	0.00000	4698.59400
4.85393	0.00000	4698.59400
4.85777	0.00000	4698.59400
4.86159	0.00000	4698.59400
4.86544	0.00000	4698.59400
4.86927	0.00000	4693.04700
4.87310	0.00000	4693.04700
4.87693	0.00000	4693.04700
4.88075	0.00000	4693.04700
4.88458	0.00000	4693.04700
4.88841	0.00000	4698.69400
4.89227	0.00000	4698.69400
4.89609	0.00000	4698.69400
4.89992	0.00000	4698.69400
4.90374	0.00000	4698.69400
4.90757	0.00000	4698.69400
4.91140	0.00000	4698.62700
4.91524	0.00000	4698.62700
4.91907	0.00000	4698.62700
4.92290	0.00000	4698.62700
4.92673	0.00000	4698.62700
4.93056	0.00000	4698.62700
4.93439	0.00000	4704.19100
4.93821	0.00000	4704.19100
4.94203	0.00000	4704.19100
4.94586	0.00000	4704.19100
4.94972	0.00000	4704.19100
4.95354	0.00000	4704.19100
4.95737	0.00000	4698.62700
4.96120	0.00000	4698.62700
4.96503	0.00000	4698.62700
4.96886	0.00000	4698.62700
4.97265	0.00000	4698.62700
4.97648	0.00000	4698.69400
4.98032	0.00000	4698.69400
4.98415	0.00000	4698.69400
4.98799	0.00000	4698.69400
4.99181	0.00000	4698.69400
4.99564	0.00000	4698.69400
4.99947	0.00000	4695.82100
5.00384	0.00000	4695.82100
5.00772	0.00000	4695.82100
5.01156	0.00000	4695.82100
5.01541	0.00000	4695.82100
5.01926	0.00000	4695.82100
5.02311	0.00000	4690.27400
5.02695	0.00000	4690.27400
5.03081	0.00000	4690.27400
5.03471	0.00000	4690.27400
5.03857	0.00000	4690.27400
5.04244	0.00000	4762.16800
5.04629	0.00000	4762.16800
5.05014	0.00000	4762.16800
5.05398	0.00000	4762.16800
5.05784	0.00000	4762.16800
5.06169	0.00000	4762.16800
5.06554	0.00000	4809.07700
5.06937	0.00000	4809.07700
5.07323	0.00000	4809.07700
5.07706	0.00000	4809.07700
5.08091	0.00000	4809.07700
5.08476	0.00000	4809.07700
5.08860	0.00000	4895.83300
5.09244	0.00000	4895.83300
5.09627	0.00000	4895.83300
5.10011	0.00000	4895.83300
5.10394	0.00000	4895.83300
5.10778	0.00000	4895.83300
5.11162	0.00000	4932.40800
5.11547	0.00000	4932.40800
5.11931	0.00000	4932.40800
5.12314	0.00000	4932.40800
5.12698	0.00000	4932.40800
5.13082	0.00000	4932.40800
5.13465	0.00000	4974.75600
5.13851	0.00000	4974.75600
5.14233	0.00000	4974.75600
5.14616	0.00000	4974.75600
5.14999	0.00000	4974.75600
5.15383	0.00000	4974.75600
5.15767	0.00000	4997.41700
5.16149	0.00000	4997.41700
5.16532	0.00000	4997.41700
5.16916	0.00000	4997.41700
5.17298	0.00000	4997.41700
5.17682	0.00000	4997.41700
5.18065	0.00000	4997.41700
5.18449	0.00000	5026.54100
5.18832	0.00000	5026.54100
5.19216	0.00000	5026.54100
5.19599	0.00000	5026.54100
5.19983	0.00000	5026.54100
5.20366	0.00000	5026.54100
5.20749	0.00000	5045.12900
5.21132	0.00000	5045.12900
5.21516	0.00000	5045.12900
5.21899	0.00000	5045.12900
5.22284	0.00000	5045.12900
5.22668	0.00000	5045.12900
5.23051	0.00000	5080.89200
5.23435	0.00000	5080.89200
5.23820	0.00000	5080.89200
5.24204	0.00000	5080.89200
5.24588	0.00000	5080.89200
5.24971	0.00000	5080.89200
5.25356	0.00000	5076.21900
5.25739	0.00000	5076.21900
5.26124	0.00000	5076.21900
5.26507	0.00000	5076.21900
5.26890	0.00000	5076.21900
5.27274	0.00000	5076.21900
5.27657	0.00000	5076.21900
5.28041	0.00000	5090.37100
5.28423	0.00000	5090.37100
5.28806	0.00000	5090.37100
5.29190	0.00000	5090.37100
5.29574	0.00000	5090.37100
5.29957	0.00000	5090.37100
5.30340	0.00000	5095.43900
5.30724	0.00000	5095.43900
5.31107	0.00000	5095.43900
5.31491	0.00000	5095.43900
5.31874	0.00000	5095.43900
5.32259	0.00000	5095.43900
5.32643	0.00000	5110.64100
5.33027	0.00000	5110.64100
5.33409	0.00000	5110.64100
5.33794	0.00000	5110.64100
5.34178	0.00000	5110.64100
5.34563	0.00000	5110.64100
5.34946	0.00000	5110.64100
5.35330	0.00000	5104.72500
5.35714	0.00000	5104.72500
5.36098	0.00000	5104.72500
5.36481	0.00000	5104.72500
5.36865	0.00000	5104.72500
5.37247	0.00000	5104.72500
5.37630	0.00000	5117.08200
5.38014	0.00000	5117.08200
5.38396	0.00000	5117.08200
5.38781	0.00000	5117.08200
5.39164	0.00000	5117.08200
5.39548	0.00000	5117.08200
5.39930	0.00000	5119.60900
5.40315	0.00000	5119.60900
5.40698	0.00000	5119.60900
5.41083	0.00000	5119.60900
5.41466	0.00000	5119.60900
5.41850	0.00000	5119.60900
5.42233	0.00000	5119.60900
5.42617	0.00000	5116.14300
5.43001	0.00000	5116.14300
5.43384	0.00000	5116.14300
5.43768	0.00000	5116.14300
5.44151	0.00000	5116.14300
5.44536	0.00000	5116.14300
5.44919	0.00000	5115.92700
5.45303	0.00000	5115.92700
5.45686	0.00000	5115.92700
5.46070	0.00000	5115.92700
5.46454	0.00000	5115.92700
5.46836	0.00000	5115.92700
5.47220	0.00000	5109.75200
5.47602	0.00000	5109.75200
5.47986	0.00000	5109.75200
5.48370	0.00000	5109.75200
5.48755	0.00000	5109.75200
5.49139	0.00000	5109.75200
5.49524	0.00000	5109.75200
5.49908	0.00000	5121.15600
5.50292	0.00000	5121.15600
5.50676	0.00000	5121.15600
5.51061	0.00000	5121.15600
5.51444	0.00000	5121.15600
5.51829	0.00000	5121.15600
5.52213	0.00000	5112.26500
5.52597	0.00000	5112.26500
5.52980	0.00000	5112.26500
5.53364	0.00000	5112.26500
5.53746	0.00000	5112.26500
5.54130	0.00000	5112.26500
5.54513	0.00000	5117.29200
5.54899	0.00000	5117.29200
5.55282	0.00000	5117.29200
5.55665	0.00000	5117.29200
5.56049	0.00000	5117.29200
5.56433	0.00000	5117.29200
5.56816	0.00000	5117.29200
5.57199	0.00000	5122.50000
5.57583	0.00000	5122.50000
5.57967	0.00000	5122.50000
5.58350	0.00000	5122.50000
5.58734	0.00000	5122.50000
5.59117	0.00000	5122.50000
5.59501	0.00000	5119.80500
5.59887	0.00000	5119.80500
5.60270	0.00000	5119.80500
5.60654	0.00000	5119.80500
5.61037	0.00000	5119.80500
5.61421	0.00000	5119.80500
5.61804	0.00000	5124.83200
5.62189	0.00000	5124.83200
5.62573	0.00000	5124.83200
5.62955	0.00000	5124.83200
5.63339	0.00000	5124.83200
5.63722	0.00000	5124.83200
5.64108	0.00000	5124.83200
5.64491	0.00000	5130.00000
5.64873	0.00000	5130.00000
5.65257	0.00000	5130.00000
5.65643	0.00000	5130.00000
5.66026	0.00000	5130.00000
5.66409	0.00000	5130.00000
5.66792	0.00000	5129.85900
5.67175	0.00000	5129.85900
5.67558	0.00000	5129.85900
5.67941	0.00000	5129.85900
5.68324	0.00000	5129.85900
5.68708	0.00000	5129.85900
5.69091	0.00000	5127.34500
5.69476	0.00000	5127.34500
5.69860	0.00000	5127.34500
5.70243	0.00000	5127.34500
5.70626	0.00000	5127.34500
5.71009	0.00000	5127.34500
5.71393	0.00000	5127.34500
5.71777	0.00000	5116.35600
5.72160	0.00000	5116.35600
5.72543	0.00000	5116.35600
5.72927	0.00000	5116.35600
5.73309	0.00000	5116.35600
5.73693	0.00000	5116.35600
5.74076	0.00000	5116.14300
5.74460	0.00000	5116.14300
5.74844	0.00000	5116.14300
5.75226	0.00000	5116.14300
5.75610	0.00000	5116.14300
5.75994	0.00000	5116.14300
5.76379	0.00000	5127.34500
5.76764	0.00000	5127.34500
5.77148	0.00000	5127.34500
5.77531	0.00000	5127.34500
5.77914	0.00000	5127.34500
5.78297	0.00000	5127.34500
5.78680	0.00000	5127.34500
5.79065	0.00000	5120.00000
5.79448	0.00000	5120.00000
5.79831	0.00000	5120.00000
5.80214	0.00000	5120.00000
5.80599	0.00000	5120.00000
5.80982	0.00000	5120.00000
5.81366	0.00000	5129.85900
5.81749	0.00000	5129.85900
5.82134	0.00000	5129.85900
5.82516	0.00000	5129.85900
5.82900	0.00000	5129.85900
5.83284	0.00000	5129.85900
5.83665	0.00000	5129.85900
5.84048	0.00000	5129.85900
5.84431	0.00000	5129.85900
5.84815	0.00000	5129.85900
5.85199	0.00000	5129.85900
5.85582	0.00000	5129.85900
5.85965	0.00000	5129.85900
5.86349	0.00000	5128.67600
5.86732	0.00000	5128.67600
5.87117	0.00000	5128.67600
5.87500	0.00000	5128.67600
5.87884	0.00000	5128.67600
5.88268	0.00000	5128.67600
5.88651	0.00000	5134.88600
5.89034	0.00000	5134.88600
5.89417	0.00000	5134.88600
5.89801	0.00000	5134.88600
5.90185	0.00000	5134.88600
5.90568	0.00000	5134.88600
5.90952	0.00000	5127.34500
5.91337	0.00000	5127.34500
5.91720	0.00000	5127.34500
5.92104	0.00000	5127.34500
5.92487	0.00000	5127.34500
5.92872	0.00000	5127.34500
5.93255	0.00000	5127.34500
5.93638	0.00000	5123.66300
5.94021	0.00000	5123.66300
5.94405	0.00000	5123.66300
5.94788	0.00000	5123.66300
5.95171	0.00000	5123.66300
5.95555	0.00000	5123.66300
5.95939	0.00000	5134.88600
5.96322	0.00000	5134.88600
5.96705	0.00000	5134.88600
5.97088	0.00000	5134.88600
5.97472	0.00000	5134.88600
5.97855	0.00000	5134.88600
5.98239	0.00000	5134.88600
5.98621	0.00000	5120.00000
5.99006	0.00000	5120.00000
5.99390	0.00000	5120.00000
5.99774	0.00000	5120.00000
6.00157	0.00000	5120.00000
6.00540	0.00000	5120.00000
6.00924	0.00000	5134.88600
6.01308	0.00000	5134.88600
6.01691	0.00000	5134.88600
6.02075	0.00000	5134.88600
6.02459	0.00000	5134.88600
6.02843	0.00000	5134.88600
6.03226	0.00000	5139.91200
6.03609	0.00000	5139.91200
6.03992	0.00000	5139.91200
6.04375	0.00000	5139.91200
6.04759	0.00000	5139.91200
6.05142	0.00000	5139.91200
6.05526	0.00000	5139.91200
6.05909	0.00000	5132.50000
6.06293	0.00000	5132.50000
6.06677	0.00000	5132.50000
6.07060	0.00000	5132.50000
6.07443	0.00000	5132.50000
6.07828	0.00000	5132.50000
6.08214	0.00000	5126.17000
6.08597	0.00000	5126.17000
6.08981	0.00000	5126.17000
6.09364	0.00000	5126.17000
6.09749	0.00000	5126.17000
6.10133	0.00000	5126.17000
6.10518	0.00000	5126.17000
6.10903	0.00000	5126.17000
6.11287	0.00000	5126.17000
6.11671	0.00000	5126.17000
6.12057	0.00000	5126.17000
6.12442	0.00000	5126.17000
6.12826	0.00000	5126.17000
6.13209	0.00000	5118.84900
6.13593	0.00000	5118.84900
6.13978	0.00000	5118.84900
6.14362	0.00000	5118.84900
6.14747	0.00000	5118.84900
6.15130	0.00000	5118.84900
6.15516	0.00000	5123.66300
6.15899	0.00000	5123.66300
6.16283	0.00000	5123.66300
6.16667	0.00000	5123.66300
6.17052	0.00000	5123.66300
6.17436	0.00000	5123.66300
6.17820	0.00000	5123.66300
6.18204	0.00000	5123.66300
6.18588	0.00000	5123.66300
6.18972	0.00000	5123.66300
6.19356	0.00000	5123.66300
6.19740	0.00000	5123.66300
6.20123	0.00000	5123.66300
6.20506	0.00000	5126.33000
6.20889	0.00000	5126.33000
6.21273	0.00000	5126.33000
6.21657	0.00000	5126.33000
6.22042	0.00000	5126.33000
6.22425	0.00000	5126.33000
6.22809	0.00000	5139.91200
6.23193	0.00000	5139.91200
6.23577	0.00000	5139.91200
6.23960	0.00000	5139.91200
6.24344	0.00000	5139.91200
6.24727	0.00000	5139.91200
6.25110	0.00000	5139.91200
6.25496	0.00000	5139.91200
6.25879	0.00000	5139.91200
6.26262	0.00000	5139.91200
6.26646	0.00000	5139.91200
6.27030	0.00000	5139.91200
6.27414	0.00000	5139.91200
6.27796	0.00000	5135.00000
6.28180	0.00000	5135.00000
6.28563	0.00000	5135.00000
6.28946	0.00000	5135.00000
6.29328	0.00000	5135.00000
6.29712	0.00000	5135.00000
6.30095	0.00000	5134.88600
6.30479	0.00000	5134.88600
6.30863	0.00000	5134.88600
6.31248	0.00000	5134.88600
6.31632	0.00000	5134.88600
6.32016	0.00000	5134.88600
6.32401	0.00000	5137.39900
6.32786	0.00000	5137.39900
6.33169	0.00000	5137.39900
6.33552	0.00000	5137.39900
6.33937	0.00000	5137.39900
6.34320	0.00000	5137.39900
6.34703	0.00000	5137.39900
6.35086	0.00000	5130.00000
6.35469	0.00000	5130.00000
6.35853	0.00000	5130.00000
6.36237	0.00000	5130.00000
6.36619	0.00000	5130.00000
6.37003	0.00000	5130.00000
6.37387	0.00000	5132.37200
6.37771	0.00000	5132.37200
6.38156	0.00000	5132.37200
6.38539	0.00000	5132.37200
6.38922	0.00000	5132.37200
6.39305	0.00000	5132.37200
6.39689	0.00000	5137.39900
6.40073	0.00000	5137.39900
6.40457	0.00000	5137.39900
6.40841	0.00000	5137.39900
6.41224	0.00000	5137.39900
6.41607	0.00000	5137.39900
6.41991	0.00000	5137.39900
6.42374	0.00000	5136.19600
6.42759	0.00000	5136.19600
6.43144	0.00000	5136.19600
6.43527	0.00000	5136.19600
6.43910	0.00000	5136.19600
6.44294	0.00000	5136.19600
6.44677	0.00000	5126.17000
6.45060	0.00000	5126.17000
6.45444	0.00000	5126.17000
6.45828	0.00000	5126.17000
6.46212	0.00000	5126.17000
6.46596	0.00000	5126.17000
6.46979	0.00000	5133.69000
6.47363	0.00000	5133.69000
6.47747	0.00000	5133.69000
6.48131	0.00000	5133.69000
6.48513	0.00000	5133.69000
6.48899	0.00000	5133.69000
6.49282	0.00000	5133.69000
6.49665	0.00000	5128.67600
6.50048	0.00000	5128.67600
6.50431	0.00000	5128.67600
6.50815	0.00000	5128.67600
6.51198	0.00000	5128.67600
6.51581	0.00000	5128.67600
6.51965	0.00000	5126.17000
6.52349	0.00000	5126.17000
6.52733	0.00000	5126.17000
6.53117	0.00000	5126.17000
6.53501	0.00000	5126.17000
6.53886	0.00000	5126.17000
6.54269	0.00000	5126.17000
6.54653	0.00000	5143.71600
6.55037	0.00000	5143.71600
6.55421	0.00000	5143.71600
6.55805	0.00000	5143.71600
6.56188	0.00000	5143.71600
6.56571	0.00000	5143.71600
6.56954	0.00000	5128.67600
6.57337	0.00000	5128.67600
6.57720	0.00000	5128.67600
6.58105	0.00000	5128.67600
6.58489	0.00000	5128.67600
6.58872	0.00000	5128.67600
6.59256	0.00000	5142.42600
6.59640	0.00000	5142.42600
6.60023	0.00000	5142.42600
6.60407	0.00000	5142.42600
6.60790	0.00000	5142.42600
6.61173	0.00000	5142.42600
6.61558	0.00000	5142.42600
6.61941	0.00000	5135.00000
6.62324	0.00000	5135.00000
6.62707	0.00000	5135.00000
6.63090	0.00000	5135.00000
6.63473	0.00000	5135.00000
6.63857	0.00000	5135.00000
6.64241	0.00000	5139.91200
6.64625	0.00000	5139.91200
6.65009	0.00000	5139.91200
6.65393	0.00000	5139.91200
6.65776	0.00000	5139.91200
6.66160	0.00000	5139.91200
6.66544	0.00000	5126.17000
6.66929	0.00000	5126.17000
6.67312	0.00000	5126.17000
6.67697	0.00000	5126.17000
6.68080	0.00000	5126.17000
6.68464	0.00000	5126.17000
6.68849	0.00000	5126.17000
6.69232	0.00000	5128.82300
6.69615	0.00000	5128.82300
6.69999	0.00000	5128.82300
6.70384	0.00000	5128.82300
6.70767	0.00000	5128.82300
6.71151	0.00000	5128.82300
6.71534	0.00000	5142.42600
6.71917	0.00000	5142.42600
6.72301	0.00000	5142.42600
6.72684	0.00000	5142.42600
6.73068	0.00000	5142.42600
6.73452	0.00000	5142.42600
6.73837	0.00000	5139.91200
6.74222	0.00000	5139.91200
6.74606	0.00000	5139.91200
6.74989	0.00000	5139.91200
6.75373	0.00000	5139.91200
6.75756	0.00000	5139.91200
6.76141	0.00000	5139.91200
6.76523	0.00000	5123.83600
6.76907	0.00000	5123.83600
6.77292	0.00000	5123.83600
6.77677	0.00000	5123.83600
6.78061	0.00000	5123.83600
6.78445	0.00000	5123.83600
6.78829	0.00000	5131.18300
6.79213	0.00000	5131.18300
6.79596	0.00000	5131.18300
6.79979	0.00000	5131.18300
6.80363	0.00000	5131.18300
6.80747	0.00000	5131.18300
6.81130	0.00000	5133.69000
6.81513	0.00000	5133.69000
6.81897	0.00000	5133.69000
6.82280	0.00000	5133.69000
6.82664	0.00000	5133.69000
6.83048	0.00000	5133.69000
6.83432	0.00000	5133.69000
6.83815	0.00000	5146.22300
6.84198	0.00000	5146.22300
6.84582	0.00000	5146.22300
6.84966	0.00000	5146.22300
6.85350	0.00000	5146.22300
6.85733	0.00000	5146.22300
6.86117	0.00000	5136.19600
6.86501	0.00000	5136.19600
6.86885	0.00000	5136.19600
6.87265	0.00000	5136.19600
6.87648	0.00000	5136.19600
6.88032	0.00000	5136.19600
6.88415	0.00000	5136.19600
6.88798	0.00000	5146.22300
6.89182	0.00000	5146.22300
6.89567	0.00000	5146.22300
6.89950	0.00000	5146.22300
6.90334	0.00000	5146.22300
6.90718	0.00000	5146.22300
6.91102	0.00000	5147.45300
6.91485	0.00000	5147.45300
6.91868	0.00000	5147.45300
6.92251	0.00000	5147.45300
6.92634	0.00000	5147.45300
6.93017	0.00000	5147.45300
6.93401	0.00000	5133.69000
6.93784	0.00000	5133.69000
6.94168	0.00000	5133.69000
6.94552	0.00000	5133.69000
6.94937	0.00000	5133.69000
6.95320	0.00000	5133.69000
6.95704	0.00000	5133.69000
6.96088	0.00000	5133.80900
6.96471	0.00000	5133.80900
6.96855	0.00000	5133.80900
6.97239	0.00000	5133.80900
6.97621	0.00000	5133.80900
6.98005	0.00000	5133.80900
6.98389	0.00000	5138.70300
6.98773	0.00000	5138.70300
6.99155	0.00000	5138.70300
6.99538	0.00000	5138.70300
6.99922	0.00000	5138.70300
7.00306	0.00000	5138.70300
7.00688	0.00000	5144.93900
7.01072	0.00000	5144.93900
7.01455	0.00000	5144.93900
7.01839	0.00000	5144.93900
7.02223	0.00000	5144.93900
7.02607	0.00000	5144.93900
7.02991	0.00000	5144.93900
7.03374	0.00000	5138.79600
7.03757	0.00000	5138.79600
7.04140	0.00000	5138.79600
7.04523	0.00000	5138.79600
7.04906	0.00000	5138.79600
7.05290	0.00000	5138.79600
7.05675	0.00000	5136.19600
7.06058	0.00000	5136.19600
7.06442	0.00000	5136.19600
7.06826	0.00000	5136.19600
7.07210	0.00000	5136.19600
7.07594	0.00000	5136.19600
7.07977	0.00000	5138.70300
7.08362	0.00000	5138.70300
7.08745	0.00000	5138.70300
7.09129	0.00000	5138.70300
7.09512	0.00000	5138.70300
7.09896	0.00000	5138.70300
7.10279	0.00000	5138.70300
7.10663	0.00000	5140.00000
7.11047	0.00000	5140.00000
7.11431	0.00000	5140.00000
7.11815	0.00000	5140.00000
7.12198	0.00000	5140.00000
7.12582	0.00000	5140.00000
7.12965	0.00000	5131.18300
7.13349	0.00000	5131.18300
7.13733	0.00000	5131.18300
7.14117	0.00000	5131.18300
7.14500	0.00000	5131.18300
7.14883	0.00000	5131.18300
7.15265	0.00000	5141.21000
7.15647	0.00000	5141.21000
7.16030	0.00000	5141.21000
7.16414	0.00000	5141.21000
7.16797	0.00000	5141.21000
7.17181	0.00000	5141.21000
7.17565	0.00000	5141.21000
7.17949	0.00000	5143.71600
7.18333	0.00000	5143.71600
7.18717	0.00000	5143.71600
7.19101	0.00000	5143.71600
7.19484	0.00000	5143.71600
7.19869	0.00000	5143.71600
7.20252	0.00000	5138.70300
7.20636	0.00000	5138.70300
7.21019	0.00000	5138.70300
7.21405	0.00000	5138.70300
7.21788	0.00000	5138.70300
7.22172	0.00000	5138.70300
7.22555	0.00000	5138.70300
7.22941	0.00000	5133.80900
7.23324	0.00000	5133.80900
7.23709	0.00000	5133.80900
7.24093	0.00000	5133.80900
7.24476	0.00000	5133.80900
7.24859	0.00000	5133.80900
7.25245	0.00000	5127.50000
7.25628	0.00000	5127.50000
7.26013	0.00000	5127.50000
7.26397	0.00000	5127.50000
7.26781	0.00000	5127.50000
7.27165	0.00000	5127.50000
7.27549	0.00000	5141.21000
7.27933	0.00000	5141.21000
7.28318	0.00000	5141.21000
7.28702	0.00000	5141.21000
7.29085	0.00000	5141.21000
7.29468	0.00000	5141.21000
7.29853	0.00000	5141.21000
7.30236	0.00000	5143.78300
7.30621	0.00000	5143.78300
7.31005	0.00000	5143.78300
7.31389	0.00000	5143.78300
7.31773	0.00000	5143.78300
7.32157	0.00000	5143.78300
7.32541	0.00000	5146.22300
7.32924	0.00000	5146.22300
7.33307	0.00000	5146.22300
7.33692	0.00000	5146.22300
7.34076	0.00000	5146.22300
7.34460	0.00000	5146.22300
7.34844	0.00000	5143.71600
7.35230	0.00000	5143.71600
7.35613	0.00000	5143.71600
7.35995	0.00000	5143.71600
7.36378	0.00000	5143.71600
7.36763	0.00000	5143.71600
7.37147	0.00000	5143.71600
7.37531	0.00000	5148.76900
7.37914	0.00000	5148.76900
7.38300	0.00000	5148.76900
7.38684	0.00000	5148.76900
7.39068	0.00000	5148.76900
7.39451	0.00000	5148.76900
7.39835	0.00000	5148.73000
7.40218	0.00000	5148.73000
7.40601	0.00000	5148.73000
7.40984	0.00000	5148.73000
7.41367	0.00000	5148.73000
7.41750	0.00000	5148.73000
7.42133	0.00000	5137.50000
7.42515	0.00000	5137.50000
7.42899	0.00000	5137.50000
7.43283	0.00000	5137.50000
7.43665	0.00000	5137.50000
7.44048	0.00000	5137.50000
7.44431	0.00000	5137.50000
7.44814	0.00000	5132.50000
7.45199	0.00000	5132.50000
7.45584	0.00000	5132.50000
7.45968	0.00000	5132.50000
7.46352	0.00000	5132.50000
7.46735	0.00000	5132.50000
7.47118	0.00000	5143.71600
7.47501	0.00000	5143.71600
7.47884	0.00000	5143.71600
7.48269	0.00000	5143.71600
7.48653	0.00000	5143.71600
7.49036	0.00000	5143.71600
7.49420	0.00000	5143.71600
7.49803	0.00000	5136.30300
7.50185	0.00000	5136.30300
7.50569	0.00000	5136.30300
7.50952	0.00000	5136.30300
7.51337	0.00000	5136.30300
7.51720	0.00000	5136.30300
7.52105	0.00000	5143.71600
7.52489	0.00000	5143.71600
7.52873	0.00000	5143.71600
7.53260	0.00000	5143.71600
7.53645	0.00000	5143.71600
7.54029	0.00000	5143.71600
7.54413	0.00000	5141.21000
7.54798	0.00000	5141.21000
7.55182	0.00000	5141.21000
7.55565	0.00000	5141.21000
7.55948	0.00000	5141.21000
7.56333	0.00000	5141.21000
7.56716	0.00000	5141.21000
7.57101	0.00000	5127.65300
7.57484	0.00000	5127.65300
7.57868	0.00000	5127.65300
7.58253	0.00000	5127.65300
7.58636	0.00000	5127.65300
7.59020	0.00000	5127.65300
7.59404	0.00000	5138.70300
7.59787	0.00000	5138.70300
7.60171	0.00000	5138.70300
7.60554	0.00000	5138.70300
7.60938	0.00000	5138.70300
7.61322	0.00000	5138.70300
7.61706	0.00000	5138.70300
7.62090	0.00000	5138.70300
7.62474	0.00000	5138.70300
7.62858	0.00000	5138.70300
7.63241	0.00000	5138.70300
7.63626	0.00000	5138.70300
7.64008	0.00000	5138.70300
7.64391	0.00000	5136.30300
7.64775	0.00000	5136.30300
7.65159	0.00000	5136.30300
7.65541	0.00000	5136.30300
7.65925	0.00000	5136.30300
7.66308	0.00000	5136.30300
7.66692	0.00000	5133.69000
7.67076	0.00000	5133.69000
7.67460	0.00000	5133.69000
7.67844	0.00000	5133.69000
7.68228	0.00000	5133.69000
7.68613	0.00000	5133.69000
7.68997	0.00000	5138.70300
7.69380	0.00000	5138.70300
7.69763	0.00000	5138.70300
7.70148	0.00000	5138.70300
7.70532	0.00000	5138.70300
7.70916	0.00000	5138.70300
7.71298	0.00000	5138.70300
7.71682	0.00000	5132.50000
7.72065	0.00000	5132.50000
7.72449	0.00000	5132.50000
7.72832	0.00000	5132.50000
7.73216	0.00000	5132.50000
7.73601	0.00000	5132.50000
7.73985	0.00000	5136.19600
7.74369	0.00000	5136.19600
7.74753	0.00000	5136.19600
7.75138	0.00000	5136.19600
7.75521	0.00000	5136.19600
7.75905	0.00000	5136.19600
7.76289	0.00000	5136.19600
7.76672	0.00000	5132.50000
7.77056	0.00000	5132.50000
7.77439	0.00000	5132.50000
7.77823	0.00000	5132.50000
7.78206	0.00000	5132.50000
7.78589	0.00000	5132.50000
7.78973	0.00000	5133.69000
7.79358	0.00000	5133.69000
7.79743	0.00000	5133.69000
7.80130	0.00000	5133.69000
7.80515	0.00000	5133.69000
7.80901	0.00000	5133.69000
7.81285	0.00000	5138.70300
7.81665	0.00000	5138.70300
7.82050	0.00000	5138.70300
7.82434	0.00000	5138.70300
7.82818	0.00000	5138.70300
7.83202	0.00000	5138.70300
7.83586	0.00000	5138.70300
7.83969	0.00000	5131.31600
7.84354	0.00000	5131.31600
7.84737	0.00000	5131.31600
7.85121	0.00000	5131.31600
7.85503	0.00000	5131.31600
7.85887	0.00000	5131.31600
7.86271	0.00000	5141.21000
7.86654	0.00000	5141.21000
7.87037	0.00000	5141.21000
7.87420	0.00000	5141.21000
7.87804	0.00000	5141.21000
7.88187	0.00000	5141.21000
7.88571	0.00000	5136.19600
7.88956	0.00000	5136.19600
7.89341	0.00000	5136.19600
7.89725	0.00000	5136.19600
7.90109	0.00000	5136.19600
7.90493	0.00000	5136.19600
7.90877	0.00000	5136.19600
7.91260	0.00000	5141.29000
7.91645	0.00000	5141.29000
7.92028	0.00000	5141.29000
7.92411	0.00000	5141.29000
7.92796	0.00000	5141.29000
7.93178	0.00000	5141.29000
7.93562	0.00000	5141.21000
7.93945	0.00000	5141.21000
7.94328	0.00000	5141.21000
7.94712	0.00000	5141.21000
7.95097	0.00000	5141.21000
7.95480	0.00000	5141.21000
7.95863	0.00000	5141.21000
7.96248	0.00000	5141.21000
7.96633	0.00000	5141.21000
7.97016	0.00000	5141.21000
7.97401	0.00000	5141.21000
7.97786	0.00000	5141.21000
7.98169	0.00000	5141.21000
7.98552	0.00000	5125.16600
7.98936	0.00000	5125.16600
7.99320	0.00000	5125.16600
7.99705	0.00000	5125.16600
8.00088	0.00000	5125.16600
8.00472	0.00000	5125.16600
8.00855	0.00000	5141.21000
8.01239	0.00000	5141.21000
8.01622	0.00000	5141.21000
8.02006	0.00000	5141.21000
8.02388	0.00000	5141.21000
8.02771	0.00000	5141.21000
8.03155	0.00000	5141.21000
8.03538	0.00000	5141.21000
8.03923	0.00000	5141.21000
8.04306	0.00000	5141.21000
8.04689	0.00000	5141.21000
8.05073	0.00000	5141.21000
8.05457	0.00000	5141.21000
8.05840	0.00000	5140.00000
8.06224	0.00000	5140.00000
8.06608	0.00000	5140.00000
8.06992	0.00000	5140.00000
8.07376	0.00000	5140.00000
8.07759	0.00000	5140.00000
8.08144	0.00000	5143.71600
8.08527	0.00000	5143.71600
8.08911	0.00000	5143.71600
8.09294	0.00000	5143.71600
8.09679	0.00000	5143.71600
8.10063	0.00000	5143.71600
8.10448	0.00000	5143.71600
8.10832	0.00000	5150.00000
8.11216	0.00000	5150.00000
8.11600	0.00000	5150.00000
8.11983	0.00000	5150.00000
8.12367	0.00000	5150.00000
8.12752	0.00000	5150.00000
8.13136	0.00000	5132.50000
8.13519	0.00000	5132.50000
8.13902	0.00000	5132.50000
8.14288	0.00000	5132.50000
8.14671	0.00000	5132.50000
8.15054	0.00000	5132.50000
8.15437	0.00000	5132.50000
8.15822	0.00000	5132.50000
8.16205	0.00000	5132.50000
8.16588	0.00000	5132.50000
8.16971	0.00000	5132.50000
8.17355	0.00000	5132.50000
8.17739	0.00000	5132.50000
8.18122	0.00000	5140.08600
8.18505	0.00000	5140.08600
8.18888	0.00000	5140.08600
8.19271	0.00000	5140.08600
8.19655	0.00000	5140.08600
8.20039	0.00000	5140.08600
8.20423	0.00000	5143.71600
8.20808	0.00000	5143.71600
8.21193	0.00000	5143.71600
8.21577	0.00000	5143.71600
8.21959	0.00000	5143.71600
8.22343	0.00000	5143.71600
8.22727	0.00000	5141.21000
8.23114	0.00000	5141.21000
8.23497	0.00000	5141.21000
8.23880	0.00000	5141.21000
8.24265	0.00000	5141.21000
8.24649	0.00000	5141.21000
8.25032	0.00000	5141.21000
8.25415	0.00000	5127.65300
8.25799	0.00000	5127.65300
8.26183	0.00000	5127.65300
8.26567	0.00000	5127.65300
8.26951	0.00000	5127.65300
8.27334	0.00000	5127.65300
8.27717	0.00000	5130.00000
8.28101	0.00000	5130.00000
8.28485	0.00000	5130.00000
8.28865	0.00000	5130.00000
8.29248	0.00000	5130.00000
8.29631	0.00000	5130.00000
8.30015	0.00000	5140.00000
8.30398	0.00000	5140.00000
8.30781	0.00000	5140.00000
8.31165	0.00000	5140.00000
8.31548	0.00000	5140.00000
8.31932	0.00000	5140.00000
8.32315	0.00000	5140.00000
8.32700	0.00000	5137.50000
8.33084	0.00000	5137.50000
8.33468	0.00000	5137.50000
8.33852	0.00000	5137.50000
8.34236	0.00000	5137.50000
8.34619	0.00000	5137.50000
8.35002	0.00000	5148.73000
8.35385	0.00000	5148.73000
8.35769	0.00000	5148.73000
8.36153	0.00000	5148.73000
8.36536	0.00000	5148.73000
8.36920	0.00000	5148.73000
8.37304	0.00000	5148.73000
8.37687	0.00000	5146.27700
8.38072	0.00000	5146.27700
8.38457	0.00000	5146.27700
8.38839	0.00000	5146.27700
8.39222	0.00000	5146.27700
8.39605	0.00000	5146.27700
8.39990	0.00000	5143.71600
8.40373	0.00000	5143.71600
8.40756	0.00000	5143.71600
8.41140	0.00000	5143.71600
8.41523	0.00000	5143.71600
8.41906	0.00000	5143.71600
8.42290	0.00000	5146.22300
8.42675	0.00000	5146.22300
8.43059	0.00000	5146.22300
8.43442	0.00000	5146.22300
8.43826	0.00000	5146.22300
8.44210	0.00000	5146.22300
8.44593	0.00000	5146.22300
8.44978	0.00000	5148.76900
8.45362	0.00000	5148.76900
8.45745	0.00000	5148.76900
8.46128	0.00000	5148.76900
8.46512	0.00000	5148.76900
8.46895	0.00000	5148.76900
8.47278	0.00000	5151.23600
8.47661	0.00000	5151.23600
8.48046	0.00000	5151.23600
8.48430	0.00000	5151.23600
8.48812	0.00000	5151.23600
8.49195	0.00000	5151.23600
8.49578	0.00000	5148.73000
8.49961	0.00000	5148.73000
8.50345	0.00000	5148.73000
8.50728	0.00000	5148.73000
8.51114	0.00000	5148.73000
8.51497	0.00000	5148.73000
8.51881	0.00000	5148.73000
8.52265	0.00000	5147.50000
8.52649	0.00000	5147.50000
8.53033	0.00000	5147.50000
8.53416	0.00000	5147.50000
8.53799	0.00000	5147.50000
8.54183	0.00000	5147.50000
8.54566	0.00000	5146.22300
8.54951	0.00000	5146.22300
8.55335	0.00000	5146.22300
8.55719	0.00000	5146.22300
8.56102	0.00000	5146.22300
8.56485	0.00000	5146.22300
8.56865	0.00000	5146.22300
8.57249	0.00000	5152.50000
8.57633	0.00000	5152.50000
8.58016	0.00000	5152.50000
8.58400	0.00000	5152.50000
8.58782	0.00000	5152.50000
8.59165	0.00000	5152.50000
8.59550	0.00000	5148.73000
8.59934	0.00000	5148.73000
8.60318	0.00000	5148.73000
8.60700	0.00000	5148.73000
8.61084	0.00000	5148.73000
8.61468	0.00000	5148.73000
8.61853	0.00000	5146.22300
8.62236	0.00000	5146.22300
8.62620	0.00000	5146.22300
8.63004	0.00000	5146.22300
8.63388	0.00000	5146.22300
8.63772	0.00000	5146.22300
8.64156	0.00000	5146.22300
8.64539	0.00000	5135.11300
8.64923	0.00000	5135.11300
8.65307	0.00000	5135.11300
8.65691	0.00000	5135.11300
8.66075	0.00000	5135.11300
8.66458	0.00000	5135.11300
8.66841	0.00000	5153.74300
8.67224	0.00000	5153.74300
8.67607	0.00000	5153.74300
8.67990	0.00000	5153.74300
8.68373	0.00000	5153.74300
8.68757	0.00000	5153.74300
8.69140	0.00000	5137.50000
8.69525	0.00000	5137.50000
8.69909	0.00000	5137.50000
8.70293	0.00000	5137.50000
8.70677	0.00000	5137.50000
8.71060	0.00000	5137.50000
8.71443	0.00000	5137.50000
8.71827	0.00000	5133.80900
8.72210	0.00000	5133.80900
8.72594	0.00000	5133.80900
8.72976	0.00000	5133.80900
8.73360	0.00000	5133.80900
8.73745	0.00000	5133.80900
8.74129	0.00000	5148.73000
8.74513	0.00000	5148.73000
8.74896	0.00000	5148.73000
8.75281	0.00000	5148.73000
8.75665	0.00000	5148.73000
8.76049	0.00000	5148.73000
8.76432	0.00000	5146.22300
8.76815	0.00000	5146.22300
8.77197	0.00000	5146.22300
8.77580	0.00000	5146.22300
8.77965	0.00000	5146.22300
8.78349	0.00000	5146.22300
8.78732	0.00000	5146.22300
8.79116	0.00000	5148.73000
8.79500	0.00000	5148.73000
8.79884	0.00000	5148.73000
8.80266	0.00000	5148.73000
8.80650	0.00000	5148.73000
8.81033	0.00000	5148.73000
8.81416	0.00000	5143.71600
8.81800	0.00000	5143.71600
8.82184	0.00000	5143.71600
8.82568	0.00000	5143.71600
8.82952	0.00000	5143.71600
8.83335	0.00000	5143.71600
8.83720	0.00000	5143.71600
8.84103	0.00000	5143.78300
8.84487	0.00000	5143.78300
8.84870	0.00000	5143.78300
8.85255	0.00000	5143.78300
8.85638	0.00000	5143.78300
8.86022	0.00000	5143.78300
8.86405	0.00000	5143.71600
8.86790	0.00000	5143.71600
8.87172	0.00000	5143.71600
8.87555	0.00000	5143.71600
8.87939	0.00000	5143.71600
8.88322	0.00000	5143.71600
8.88707	0.00000	5146.22300
8.89091	0.00000	5146.22300
8.89475	0.00000	5146.22300
8.89859	0.00000	5146.22300
8.90243	0.00000	5146.22300
8.90627	0.00000	5146.22300
8.91010	0.00000	5146.22300
8.91393	0.00000	5148.76900
8.91779	0.00000	5148.76900
8.92162	0.00000	5148.76900
8.92544	0.00000	5148.76900
8.92928	0.00000	5148.76900
8.93311	0.00000	5148.76900
8.93695	0.00000	5146.22300
8.94078	0.00000	5146.22300
8.94462	0.00000	5146.22300
8.94846	0.00000	5146.22300
8.95229	0.00000	5146.22300
8.95613	0.00000	5146.22300
8.95997	0.00000	5143.71600
8.96380	0.00000	5143.71600
8.96764	0.00000	5143.71600
8.97148	0.00000	5143.71600
8.97531	0.00000	5143.71600
8.97915	0.00000	5143.71600
8.98298	0.00000	5143.71600
8.98682	0.00000	5145.00000
8.99066	0.00000	5145.00000
8.99450	0.00000	5145.00000
8.99834	0.00000	5145.00000
9.00218	0.00000	5145.00000
9.00602	0.00000	5145.00000
9.00986	0.00000	5141.21000
9.01369	0.00000	5141.21000
9.01752	0.00000	5141.21000
9.02136	0.00000	5141.21000
9.02522	0.00000	5141.21000
9.02905	0.00000	5141.21000
9.03289	0.00000	5141.21000
9.03672	0.00000	5137.50000
9.04055	0.00000	5137.50000
9.04438	0.00000	5137.50000
9.04823	0.00000	5137.50000
9.05207	0.00000	5137.50000
9.05589	0.00000	5137.50000
9.05974	0.00000	5143.71600
9.06358	0.00000	5143.71600
9.06741	0.00000	5143.71600
9.07125	0.00000	5143.71600
9.07508	0.00000	5143.71600
9.07892	0.00000	5143.71600
9.08276	0.00000	5141.21000
9.08660	0.00000	5141.21000
9.09043	0.00000	5141.21000
9.09428	0.00000	5141.21000
9.09812	0.00000	5141.21000
9.10196	0.00000	5141.21000
9.10581	0.00000	5141.21000
9.10965	0.00000	5138.79600
9.11348	0.00000	5138.79600
9.11732	0.00000	5138.79600
9.12115	0.00000	5138.79600
9.12498	0.00000	5138.79600
9.12885	0.00000	5138.79600
9.13265	0.00000	5146.22300
9.13648	0.00000	5146.22300
9.14033	0.00000	5146.22300
9.14417	0.00000	5146.22300
9.14801	0.00000	5146.22300
9.15184	0.00000	5146.22300
9.15569	0.00000	5127.50000
9.15955	0.00000	5127.50000
9.16339	0.00000	5127.50000
9.16722	0.00000	5127.50000
9.17105	0.00000	5127.50000
9.17489	0.00000	5127.50000
9.17874	0.00000	5127.50000
9.18257	0.00000	5135.11300
9.18641	0.00000	5135.11300
9.19025	0.00000	5135.11300
9.19409	0.00000	5135.11300
9.19794	0.00000	5135.11300
9.20177	0.00000	5135.11300
9.20560	0.00000	5146.22300
9.20943	0.00000	5146.22300
9.21326	0.00000	5146.22300
9.21711	0.00000	5146.22300
9.22095	0.00000	5146.22300
9.22478	0.00000	5146.22300
9.22862	0.00000	5132.50000
9.23246	0.00000	5132.50000
9.23629	0.00000	5132.50000
9.24013	0.00000	5132.50000
9.24397	0.00000	5132.50000
9.24780	0.00000	5132.50000
9.25164	0.00000	5132.50000
9.25548	0.00000	5147.50000
9.25933	0.00000	5147.50000
9.26319	0.00000	5147.50000
9.26702	0.00000	5147.50000
9.27085	0.00000	5147.50000
9.27469	0.00000	5147.50000
9.27851	0.00000	5148.73000
9.28235	0.00000	5148.73000
9.28619	0.00000	5148.73000
9.29002	0.00000	5148.73000
9.29386	0.00000	5148.73000
9.29769	0.00000	5148.73000
9.30153	0.00000	5148.73000
9.30537	0.00000	5142.50000
9.30920	0.00000	5142.50000
9.31304	0.00000	5142.50000
9.31687	0.00000	5142.50000
9.32071	0.00000	5142.50000
9.32454	0.00000	5142.50000
9.32839	0.00000	5146.22300
9.33223	0.00000	5146.22300
9.33606	0.00000	5146.22300
9.33990	0.00000	5146.22300
9.34375	0.00000	5146.22300
9.34760	0.00000	5146.22300
9.35143	0.00000	5141.21000
9.35527	0.00000	5141.21000
9.35911	0.00000	5141.21000
9.36296	0.00000	5141.21000
9.36678	0.00000	5141.21000
9.37062	0.00000	5141.21000
9.37446	0.00000	5141.21000
9.37829	0.00000	5141.29000
9.38213	0.00000	5141.29000
9.38596	0.00000	5141.29000
9.38980	0.00000	5141.29000
9.39363	0.00000	5141.29000
9.39749	0.00000	5141.29000
9.40133	0.00000	5143.71600
9.40516	0.00000	5143.71600
9.40900	0.00000	5143.71600
9.41283	0.00000	5143.71600
9.41665	0.00000	5143.71600
9.42048	0.00000	5143.71600
9.42431	0.00000	5141.21000
9.42817	0.00000	5141.21000
9.43201	0.00000	5141.21000
9.43584	0.00000	5141.21000
9.43969	0.00000	5141.21000
9.44353	0.00000	5141.21000
9.44736	0.00000	5141.21000
9.45121	0.00000	5146.27700
9.45504	0.00000	5146.27700
9.45888	0.00000	5146.27700
9.46272	0.00000	5146.27700
9.46655	0.00000	5146.27700
9.47039	0.00000	5146.27700
9.47422	0.00000	5146.22300
9.47805	0.00000	5146.22300
9.48187	0.00000	5146.22300
9.48571	0.00000	5146.22300
9.48956	0.00000	5146.22300
9.49339	0.00000	5146.22300
9.49723	0.00000	5141.21000
9.50105	0.00000	5141.21000
9.50489	0.00000	5141.21000
9.50872	0.00000	5141.21000
9.51256	0.00000	5141.21000
9.51640	0.00000	5141.21000
9.52023	0.00000	5141.21000
9.52408	0.00000	5142.50000
9.52793	0.00000	5142.50000
9.53178	0.00000	5142.50000
9.53562	0.00000	5142.50000
9.53945	0.00000	5142.50000
9.54330	0.00000	5142.50000
9.54714	0.00000	5143.71600
9.55098	0.00000	5143.71600
9.55482	0.00000	5143.71600
9.55867	0.00000	5143.71600
9.56249	0.00000	5143.71600
9.56633	0.00000	5143.71600
9.57017	0.00000	5148.73000
9.57400	0.00000	5148.73000
9.57783	0.00000	5148.73000
9.58168	0.00000	5148.73000
9.58553	0.00000	5148.73000
9.58935	0.00000	5148.73000
9.59320	0.00000	5148.73000
9.59706	0.00000	5148.73000
9.60089	0.00000	5148.73000
9.60472	0.00000	5148.73000
9.60855	0.00000	5148.73000
9.61239	0.00000	5148.73000
9.61622	0.00000	5148.73000
9.62005	0.00000	5143.71600
9.62389	0.00000	5143.71600
9.62773	0.00000	5143.71600
9.63157	0.00000	5143.71600
9.63540	0.00000	5143.71600
9.63924	0.00000	5143.71600
9.64307	0.00000	5143.71600
9.64690	0.00000	5141.29000
9.65073	0.00000	5141.29000
9.65457	0.00000	5141.29000
9.65841	0.00000	5141.29000
9.66225	0.00000	5141.29000
9.66608	0.00000	5141.29000
9.66991	0.00000	5146.22300
9.67375	0.00000	5146.22300
9.67758	0.00000	5146.22300
9.68141	0.00000	5146.22300
9.68525	0.00000	5146.22300
9.68908	0.00000	5146.22300
9.69292	0.00000	5148.73000
9.69677	0.00000	5148.73000
9.70060	0.00000	5148.73000
9.70443	0.00000	5148.73000
9.70827	0.00000	5148.73000
9.71211	0.00000	5148.73000
9.71595	0.00000	5148.73000
9.71978	0.00000	5148.76900
9.72361	0.00000	5148.76900
9.72745	0.00000	5148.76900
9.73127	0.00000	5148.76900
9.73510	0.00000	5148.76900
9.73895	0.00000	5148.76900
9.74279	0.00000	5148.73000
9.74663	0.00000	5148.73000
9.75047	0.00000	5148.73000
9.75430	0.00000	5148.73000
9.75814	0.00000	5148.73000
9.76196	0.00000	5148.73000
9.76581	0.00000	5140.00000
9.76964	0.00000	5140.00000
9.77347	0.00000	5140.00000
9.77732	0.00000	5140.00000
9.78116	0.00000	5140.00000
9.78499	0.00000	5140.00000
9.78882	0.00000	5140.00000
9.79265	0.00000	5147.50000
9.79649	0.00000	5147.50000
9.80032	0.00000	5147.50000
9.80415	0.00000	5147.50000
9.80797	0.00000	5147.50000
9.81181	0.00000	5147.50000
9.81563	0.00000	5140.00000
9.81947	0.00000	5140.00000
9.82332	0.00000	5140.00000
9.82717	0.00000	5140.00000
9.83100	0.00000	5140.00000
9.83483	0.00000	5140.00000
9.83867	0.00000	5140.00000
9.84250	0.00000	5135.11300
9.84634	0.00000	5135.11300
9.85018	0.00000	5135.11300
9.85401	0.00000	5135.11300
9.85784	0.00000	5135.11300
9.86168	0.00000	5135.11300
9.86553	0.00000	5137.50000
9.86936	0.00000	5137.50000
9.87320	0.00000	5137.50000
9.87704	0.00000	5137.50000
9.88087	0.00000	5137.50000
9.88471	0.00000	5137.50000
9.88856	0.00000	5153.74300
9.89239	0.00000	5153.74300
9.89622	0.00000	5153.74300
9.90007	0.00000	5153.74300
9.90392	0.00000	5153.74300
9.90775	0.00000	5153.74300
9.91159	0.00000	5153.74300
9.91544	0.00000	5142.57300
9.91928	0.00000	5142.57300
9.92313	0.00000	5142.57300
9.92697	0.00000	5142.57300
9.93081	0.00000	5142.57300
9.93465	0.00000	5142.57300
9.93848	0.00000	5140.00000
9.94232	0.00000	5140.00000
9.94615	0.00000	5140.00000
9.94999	0.00000	5140.00000
9.95383	0.00000	5140.00000
9.95766	0.00000	5140.00000
9.96152	0.00000	5142.50000
9.96537	0.00000	5142.50000
9.96921	0.00000	5142.50000
9.97304	0.00000	5142.50000
9.97689	0.00000	5142.50000
9.98073	0.00000	5142.50000
9.98457	0.00000	5142.50000
9.98840	0.00000	5148.76900
9.99223	0.00000	5148.76900
9.99608	0.00000	5148.76900
9.99992	0.00000	5148.76900
