Time (s)   Thrust (N)   RPM
0.00034	0.00000	4843.75000
0.00425	0.00000	4843.75000
0.00810	0.00000	4843.75000
0.01195	0.00000	4843.75000
0.01578	0.00000	4843.75000
0.01963	0.00000	4843.75000
0.02350	0.00000	4843.75000
0.02736	0.00000	4822.19800
0.03121	0.00000	4822.19800
0.03505	0.00000	4822.19800
0.03889	0.00000	4822.19800
0.04275	0.00000	4822.19800
0.04659	0.00000	4822.19800
0.05043	0.00000	4817.55700
0.05427	0.00000	4817.55700
0.05811	0.00000	4817.55700
0.06195	0.00000	4817.55700
0.06579	0.00000	4817.55700
0.06963	0.00000	4817.55700
0.07347	0.00000	4821.03900
0.07732	0.00000	4821.03900
0.08114	0.00000	4821.03900
0.08498	0.00000	4821.03900
0.08881	0.00000	4821.03900
0.09261	0.00000	4821.03900
0.09644	0.00000	4782.88500
0.10028	0.00000	4782.88500
0.10411	0.00000	4782.88500
0.10795	0.00000	4782.88500
0.11179	0.00000	4782.88500
0.11563	0.00000	4782.88500
0.11946	0.00000	4766.53300
0.12329	0.00000	4766.53300
0.12713	0.00000	4766.53300
0.13096	0.00000	4766.53300
0.13480	0.00000	4766.53300
0.13862	0.00000	4767.46300
0.14244	0.00000	4767.46300
0.14627	0.00000	4767.46300
0.15011	0.00000	4767.46300
0.15395	0.00000	4767.46300
0.15780	0.00000	4767.46300
0.16162	0.00000	4764.70600
0.16546	0.00000	4764.70600
0.16930	0.00000	4764.70600
0.17315	0.00000	4764.70600
0.17699	0.00000	4764.70600
0.18084	0.00000	4764.70600
0.18467	0.00000	4736.84200
0.18852	0.00000	4736.84200
0.19235	0.00000	4736.84200
0.19618	0.00000	4736.84200
0.20003	0.00000	4736.84200
0.20386	0.00000	4736.84200
0.20770	0.00000	4750.91900
0.21154	0.00000	4750.91900
0.21537	0.00000	4750.91900
0.21920	0.00000	4750.91900
0.22304	0.00000	4750.91900
0.22687	0.00000	4750.91900
0.23071	0.00000	4745.40400
0.23455	0.00000	4745.40400
0.23839	0.00000	4745.40400
0.24223	0.00000	4745.40400
0.24607	0.00000	4745.40400
0.24990	0.00000	4748.52000
0.25375	0.00000	4748.52000
0.25759	0.00000	4748.52000
0.26143	0.00000	4748.52000
0.26526	0.00000	4748.52000
0.26910	0.00000	4748.52000
0.27293	0.00000	4731.61700
0.27677	0.00000	4731.61700
0.28060	0.00000	4731.61700
0.28444	0.00000	4731.61700
0.28828	0.00000	4731.61700
0.29211	0.00000	4731.61700
0.29595	0.00000	4717.83100
0.29979	0.00000	4717.83100
0.30362	0.00000	4717.83100
0.30746	0.00000	4717.83100
0.31129	0.00000	4717.83100
0.31513	0.00000	4717.83100
0.31896	0.00000	4717.83100
0.32279	0.00000	4717.83100
0.32663	0.00000	4717.83100
0.33045	0.00000	4717.83100
0.33430	0.00000	4717.83100
0.33813	0.00000	4726.33100
0.34196	0.00000	4726.33100
0.34581	0.00000	4726.33100
0.34964	0.00000	4726.33100
0.35348	0.00000	4726.33100
0.35732	0.00000	4726.33100
0.36114	0.00000	4731.87800
0.36498	0.00000	4731.87800
0.36882	0.00000	4731.87800
0.37261	0.00000	4731.87800
0.37644	0.00000	4731.87800
0.38027	0.00000	4731.87800
0.38412	0.00000	4731.61700
0.38796	0.00000	4731.61700
0.39180	0.00000	4731.61700
0.39563	0.00000	4731.61700
0.39948	0.00000	4731.61700
0.40332	0.00000	4731.61700
0.40715	0.00000	4715.07300
0.41099	0.00000	4715.07300
0.41483	0.00000	4715.07300
0.41866	0.00000	4715.07300
0.42249	0.00000	4715.07300
0.42632	0.00000	4715.07300
0.43015	0.00000	4723.55700
0.43398	0.00000	4723.55700
0.43782	0.00000	4723.55700
0.44166	0.00000	4723.55700
0.44549	0.00000	4723.55700
0.44932	0.00000	4740.51300
0.45316	0.00000	4740.51300
0.45699	0.00000	4740.51300
0.46082	0.00000	4740.51300
0.46461	0.00000	4740.51300
0.46844	0.00000	4740.51300
0.47228	0.00000	4740.19900
0.47612	0.00000	4740.19900
0.47995	0.00000	4740.19900
0.48379	0.00000	4740.19900
0.48763	0.00000	4740.19900
0.49146	0.00000	4740.19900
0.49530	0.00000	4698.52900
0.49913	0.00000	4698.52900
0.50297	0.00000	4698.52900
0.50680	0.00000	4698.52900
0.51063	0.00000	4698.52900
0.51446	0.00000	4698.52900
0.51828	0.00000	4715.23700
0.52211	0.00000	4715.23700
0.52595	0.00000	4715.23700
0.52979	0.00000	4715.23700
0.53363	0.00000	4715.23700
0.53747	0.00000	4723.77200
0.54133	0.00000	4723.77200
0.54520	0.00000	4723.77200
0.54905	0.00000	4723.77200
0.55288	0.00000	4723.77200
0.55672	0.00000	4723.77200
0.56055	0.00000	4704.04400
0.56439	0.00000	4704.04400
0.56823	0.00000	4704.04400
0.57207	0.00000	4704.04400
0.57590	0.00000	4704.04400
0.57973	0.00000	4704.04400
0.58356	0.00000	4720.78400
0.58740	0.00000	4720.78400
0.59123	0.00000	4720.78400
0.59507	0.00000	4720.78400
0.59891	0.00000	4720.78400
0.60274	0.00000	4720.78400
0.60658	0.00000	4718.01000
0.61052	0.00000	4718.01000
0.61440	0.00000	4718.01000
0.61825	0.00000	4718.01000
0.62209	0.00000	4718.01000
0.62593	0.00000	4734.93300
0.62976	0.00000	4734.93300
0.63359	0.00000	4734.93300
0.63743	0.00000	4734.93300
0.64128	0.00000	4734.93300
0.64511	0.00000	4734.93300
0.64895	0.00000	4731.87800
0.65277	0.00000	4731.87800
0.65661	0.00000	4731.87800
0.66044	0.00000	4731.87800
0.66428	0.00000	4731.87800
0.66812	0.00000	4731.87800
0.67195	0.00000	4701.28600
0.67579	0.00000	4701.28600
0.67963	0.00000	4701.28600
0.68346	0.00000	4701.28600
0.68729	0.00000	4701.28600
0.69113	0.00000	4701.28600
0.69495	0.00000	4706.91500
0.69878	0.00000	4706.91500
0.70261	0.00000	4706.91500
0.70644	0.00000	4706.91500
0.71028	0.00000	4706.91500
0.71411	0.00000	4698.59400
0.71796	0.00000	4698.59400
0.72179	0.00000	4698.59400
0.72561	0.00000	4698.59400
0.72944	0.00000	4698.59400
0.73327	0.00000	4698.59400
0.73710	0.00000	4715.23700
0.74093	0.00000	4715.23700
0.74476	0.00000	4715.23700
0.74859	0.00000	4715.23700
0.75243	0.00000	4715.23700
0.75626	0.00000	4715.23700
0.76010	0.00000	4723.55700
0.76393	0.00000	4723.55700
0.76776	0.00000	4723.55700
0.77159	0.00000	4723.55700
0.77543	0.00000	4723.55700
0.77926	0.00000	4723.55700
0.78309	0.00000	4720.78400
0.78692	0.00000	4720.78400
0.79076	0.00000	4720.78400
0.79459	0.00000	4720.78400
0.79842	0.00000	4720.78400
0.80225	0.00000	4734.93300
0.80609	0.00000	4734.93300
0.80991	0.00000	4734.93300
0.81374	0.00000	4734.93300
0.81757	0.00000	4734.93300
0.82140	0.00000	4734.93300
0.82523	0.00000	4695.77200
0.82907	0.00000	4695.77200
0.83291	0.00000	4695.77200
0.83675	0.00000	4695.77200
0.84058	0.00000	4695.77200
0.84443	0.00000	4695.77200
0.84826	0.00000	4704.04400
0.85210	0.00000	4704.04400
0.85593	0.00000	4704.04400
0.85976	0.00000	4704.04400
0.86360	0.00000	4704.04400
0.86744	0.00000	4704.04400
0.87126	0.00000	4718.01000
0.87510	0.00000	4718.01000
0.87893	0.00000	4718.01000
0.88277	0.00000	4718.01000
0.88661	0.00000	4718.01000
0.89044	0.00000	4701.36800
0.89428	0.00000	4701.36800
0.89812	0.00000	4701.36800
0.90195	0.00000	4701.36800
0.90578	0.00000	4701.36800
0.90961	0.00000	4701.36800
0.91345	0.00000	4731.87800
0.91728	0.00000	4731.87800
0.92111	0.00000	4731.87800
0.92495	0.00000	4731.87800
0.92879	0.00000	4731.87800
0.93261	0.00000	4731.87800
0.93645	0.00000	4729.10500
0.94029	0.00000	4729.10500
0.94413	0.00000	4729.10500
0.94797	0.00000	4729.10500
0.95181	0.00000	4729.10500
0.95564	0.00000	4729.10500
0.95948	0.00000	4690.25700
0.96331	0.00000	4690.25700
0.96714	0.00000	4690.25700
0.97097	0.00000	4690.25700
0.97480	0.00000	4690.25700
0.97863	0.00000	4726.56200
0.98247	0.00000	4726.56200
0.98630	0.00000	4726.56200
0.99013	0.00000	4726.56200
0.99396	0.00000	4726.56200
0.99780	0.00000	4726.56200
1.00163	0.00000	4729.10500
1.00547	0.00000	4729.10500
1.00931	0.00000	4729.10500
1.01314	0.00000	4729.10500
1.01699	0.00000	4729.10500
1.02082	0.00000	4729.10500
1.02461	0.00000	4720.78400
1.02844	0.00000	4720.78400
1.03228	0.00000	4720.78400
1.03612	0.00000	4720.78400
1.03995	0.00000	4720.78400
1.04379	0.00000	4720.78400
1.04762	0.00000	4729.10500
1.05145	0.00000	4729.10500
1.05529	0.00000	4729.10500
1.05912	0.00000	4729.10500
1.06297	0.00000	4729.10500
1.06681	0.00000	4734.93300
1.07065	0.00000	4734.93300
1.07447	0.00000	4734.93300
1.07832	0.00000	4734.93300
1.08215	0.00000	4734.93300
1.08599	0.00000	4734.93300
1.08982	0.00000	4695.77200
1.09366	0.00000	4695.77200
1.09749	0.00000	4695.77200
1.10133	0.00000	4695.77200
1.10515	0.00000	4695.77200
1.10899	0.00000	4695.77200
1.11279	0.00000	4729.10500
1.11661	0.00000	4729.10500
1.12044	0.00000	4729.10500
1.12427	0.00000	4729.10500
1.12810	0.00000	4729.10500
1.13194	0.00000	4729.10500
1.13577	0.00000	4720.78400
1.13961	0.00000	4720.78400
1.14347	0.00000	4720.78400
1.14730	0.00000	4720.78400
1.15115	0.00000	4720.78400
1.15498	0.00000	4704.14200
1.15882	0.00000	4704.14200
1.16266	0.00000	4704.14200
1.16649	0.00000	4704.14200
1.17032	0.00000	4704.14200
1.17417	0.00000	4704.14200
1.17800	0.00000	4729.10500
1.18185	0.00000	4729.10500
1.18569	0.00000	4729.10500
1.18953	0.00000	4729.10500
1.19336	0.00000	4729.10500
1.19721	0.00000	4729.10500
1.20104	0.00000	4734.65200
1.20488	0.00000	4734.65200
1.20870	0.00000	4734.65200
1.21253	0.00000	4734.65200
1.21638	0.00000	4734.65200
1.22022	0.00000	4734.65200
1.22405	0.00000	4701.28600
1.22788	0.00000	4701.28600
1.23173	0.00000	4701.28600
1.23556	0.00000	4701.28600
1.23939	0.00000	4701.28600
1.24323	0.00000	4712.46300
1.24709	0.00000	4712.46300
1.25092	0.00000	4712.46300
1.25476	0.00000	4712.46300
1.25860	0.00000	4712.46300
1.26243	0.00000	4712.46300
1.26626	0.00000	4715.23700
1.27009	0.00000	4715.23700
1.27393	0.00000	4715.23700
1.27777	0.00000	4715.23700
1.28161	0.00000	4715.23700
1.28545	0.00000	4715.23700
1.28928	0.00000	4706.80200
1.29311	0.00000	4706.80200
1.29695	0.00000	4706.80200
1.30079	0.00000	4706.80200
1.30461	0.00000	4706.80200
1.30845	0.00000	4706.80200
1.31228	0.00000	4709.55900
1.31612	0.00000	4709.55900
1.31995	0.00000	4709.55900
1.32379	0.00000	4709.55900
1.32763	0.00000	4709.55900
1.33146	0.00000	4732.14200
1.33529	0.00000	4732.14200
1.33913	0.00000	4732.14200
1.34296	0.00000	4732.14200
1.34679	0.00000	4732.14200
1.35062	0.00000	4732.14200
1.35446	0.00000	4715.23700
1.35829	0.00000	4715.23700
1.36213	0.00000	4715.23700
1.36597	0.00000	4715.23700
1.36983	0.00000	4715.23700
1.37367	0.00000	4715.23700
1.37752	0.00000	4701.28600
1.38135	0.00000	4701.28600
1.38518	0.00000	4701.28600
1.38902	0.00000	4701.28600
1.39285	0.00000	4701.28600
1.39669	0.00000	4701.28600
1.40052	0.00000	4729.10500
1.40435	0.00000	4729.10500
1.40818	0.00000	4729.10500
1.41201	0.00000	4729.10500
1.41584	0.00000	4729.10500
1.41969	0.00000	4726.56200
1.42353	0.00000	4726.56200
1.42736	0.00000	4726.56200
1.43119	0.00000	4726.56200
1.43502	0.00000	4726.56200
1.43884	0.00000	4726.56200
1.44269	0.00000	4743.30300
1.44653	0.00000	4743.30300
1.45037	0.00000	4743.30300
1.45419	0.00000	4743.30300
1.45803	0.00000	4743.30300
1.46186	0.00000	4743.30300
1.46569	0.00000	4731.87800
1.46953	0.00000	4731.87800
1.47337	0.00000	4731.87800
1.47719	0.00000	4731.87800
1.48103	0.00000	4731.87800
1.48487	0.00000	4731.87800
1.48870	0.00000	4690.25700
1.49254	0.00000	4690.25700
1.49637	0.00000	4690.25700
1.50020	0.00000	4690.25700
1.50404	0.00000	4690.25700
1.50787	0.00000	4718.19200
1.51170	0.00000	4718.19200
1.51554	0.00000	4718.19200
1.51937	0.00000	4718.19200
1.52320	0.00000	4718.19200
1.52703	0.00000	4718.19200
1.53087	0.00000	4740.51300
1.53471	0.00000	4740.51300
1.53855	0.00000	4740.51300
1.54240	0.00000	4740.51300
1.54626	0.00000	4740.51300
1.55012	0.00000	4740.51300
1.55396	0.00000	4734.65200
1.55781	0.00000	4734.65200
1.56166	0.00000	4734.65200
1.56550	0.00000	4734.65200
1.56932	0.00000	4734.65200
1.57315	0.00000	4734.65200
1.57698	0.00000	4715.23700
1.58082	0.00000	4715.23700
1.58466	0.00000	4715.23700
1.58851	0.00000	4715.23700
1.59234	0.00000	4715.23700
1.59617	0.00000	4723.77200
1.59999	0.00000	4723.77200
1.60382	0.00000	4723.77200
1.60767	0.00000	4723.77200
1.61151	0.00000	4723.77200
1.61534	0.00000	4723.77200
1.61917	0.00000	4712.46300
1.62299	0.00000	4712.46300
1.62683	0.00000	4712.46300
1.63066	0.00000	4712.46300
1.63450	0.00000	4712.46300
1.63833	0.00000	4712.46300
1.64216	0.00000	4720.78400
1.64601	0.00000	4720.78400
1.64984	0.00000	4720.78400
1.65369	0.00000	4720.78400
1.65752	0.00000	4720.78400
1.66136	0.00000	4720.78400
1.66520	0.00000	4715.23700
1.66903	0.00000	4715.23700
1.67287	0.00000	4715.23700
1.67671	0.00000	4715.23700
1.68054	0.00000	4715.23700
1.68438	0.00000	4726.56200
1.68823	0.00000	4726.56200
1.69206	0.00000	4726.56200
1.69589	0.00000	4726.56200
1.69972	0.00000	4726.56200
1.70355	0.00000	4726.56200
1.70739	0.00000	4709.68900
1.71122	0.00000	4709.68900
1.71506	0.00000	4709.68900
1.71889	0.00000	4709.68900
1.72272	0.00000	4709.68900
1.72657	0.00000	4709.68900
1.73040	0.00000	4715.23700
1.73424	0.00000	4715.23700
1.73806	0.00000	4715.23700
1.74190	0.00000	4715.23700
1.74574	0.00000	4715.23700
1.74957	0.00000	4715.23700
1.75341	0.00000	4695.77200
1.75724	0.00000	4695.77200
1.76108	0.00000	4695.77200
1.76492	0.00000	4695.77200
1.76876	0.00000	4695.77200
1.77259	0.00000	4726.56200
1.77645	0.00000	4726.56200
1.78029	0.00000	4726.56200
1.78412	0.00000	4726.56200
1.78796	0.00000	4726.56200
1.79180	0.00000	4726.56200
1.79563	0.00000	4723.55700
1.79947	0.00000	4723.55700
1.80330	0.00000	4723.55700
1.80713	0.00000	4723.55700
1.81096	0.00000	4723.55700
1.81480	0.00000	4723.55700
1.81863	0.00000	4718.01000
1.82246	0.00000	4718.01000
1.82629	0.00000	4718.01000
1.83014	0.00000	4718.01000
1.83397	0.00000	4718.01000
1.83781	0.00000	4718.01000
1.84165	0.00000	4718.01000
1.84548	0.00000	4718.01000
1.84932	0.00000	4718.01000
1.85315	0.00000	4718.01000
1.85699	0.00000	4718.01000
1.86083	0.00000	4704.14200
1.86467	0.00000	4704.14200
1.86851	0.00000	4704.14200
1.87234	0.00000	4704.14200
1.87617	0.00000	4704.14200
1.88000	0.00000	4704.14200
1.88384	0.00000	4709.68900
1.88767	0.00000	4709.68900
1.89151	0.00000	4709.68900
1.89535	0.00000	4709.68900
1.89919	0.00000	4709.68900
1.90303	0.00000	4709.68900
1.90687	0.00000	4706.80200
1.91072	0.00000	4706.80200
1.91454	0.00000	4706.80200
1.91837	0.00000	4706.80200
1.92221	0.00000	4706.80200
1.92604	0.00000	4706.80200
1.92987	0.00000	4718.01000
1.93371	0.00000	4718.01000
1.93754	0.00000	4718.01000
1.94137	0.00000	4718.01000
1.94521	0.00000	4718.01000
1.94904	0.00000	4709.82100
1.95289	0.00000	4709.82100
1.95673	0.00000	4709.82100
1.96056	0.00000	4709.82100
1.96439	0.00000	4709.82100
1.96823	0.00000	4709.82100
1.97206	0.00000	4715.23700
1.97589	0.00000	4715.23700
1.97972	0.00000	4715.23700
1.98355	0.00000	4715.23700
1.98737	0.00000	4715.23700
1.99121	0.00000	4715.23700
1.99505	0.00000	4715.23700
1.99889	0.00000	4715.23700
2.00272	0.00000	4715.23700
2.00655	0.00000	4715.23700
2.01038	0.00000	4715.23700
2.01422	0.00000	4715.23700
2.01805	0.00000	4726.33100
2.02189	0.00000	4726.33100
2.02571	0.00000	4726.33100
2.02955	0.00000	4726.33100
2.03339	0.00000	4726.33100
2.03722	0.00000	4712.61200
2.04107	0.00000	4712.61200
2.04491	0.00000	4712.61200
2.04875	0.00000	4712.61200
2.05258	0.00000	4712.61200
2.05642	0.00000	4712.61200
2.06026	0.00000	4715.23700
2.06410	0.00000	4715.23700
2.06793	0.00000	4715.23700
2.07178	0.00000	4715.23700
2.07562	0.00000	4715.23700
2.07946	0.00000	4715.23700
2.08330	0.00000	4720.78400
2.08713	0.00000	4720.78400
2.09096	0.00000	4720.78400
2.09479	0.00000	4720.78400
2.09863	0.00000	4720.78400
2.10246	0.00000	4720.78400
2.10629	0.00000	4729.10500
2.11012	0.00000	4729.10500
2.11395	0.00000	4729.10500
2.11778	0.00000	4729.10500
2.12161	0.00000	4729.10500
2.12544	0.00000	4693.04700
2.12928	0.00000	4693.04700
2.13312	0.00000	4693.04700
2.13696	0.00000	4693.04700
2.14078	0.00000	4693.04700
2.14461	0.00000	4693.04700
2.14844	0.00000	4695.82100
2.15228	0.00000	4695.82100
2.15611	0.00000	4695.82100
2.15994	0.00000	4695.82100
2.16377	0.00000	4695.82100
2.16760	0.00000	4695.82100
2.17143	0.00000	4720.78400
2.17526	0.00000	4720.78400
2.17910	0.00000	4720.78400
2.18293	0.00000	4720.78400
2.18677	0.00000	4720.78400
2.19060	0.00000	4720.78400
2.19444	0.00000	4723.55700
2.19828	0.00000	4723.55700
2.20212	0.00000	4723.55700
2.20595	0.00000	4723.55700
2.20978	0.00000	4723.55700
2.21362	0.00000	4723.77200
2.21747	0.00000	4723.77200
2.22130	0.00000	4723.77200
2.22513	0.00000	4723.77200
2.22896	0.00000	4723.77200
2.23279	0.00000	4723.77200
2.23661	0.00000	4698.59400
2.24045	0.00000	4698.59400
2.24428	0.00000	4698.59400
2.24812	0.00000	4698.59400
2.25196	0.00000	4698.59400
2.25579	0.00000	4698.59400
2.25963	0.00000	4723.55700
2.26347	0.00000	4723.55700
2.26731	0.00000	4723.55700
2.27114	0.00000	4723.55700
2.27497	0.00000	4723.55700
2.27880	0.00000	4723.55700
2.28264	0.00000	4734.65200
2.28648	0.00000	4734.65200
2.29032	0.00000	4734.65200
2.29415	0.00000	4734.65200
2.29798	0.00000	4734.65200
2.30182	0.00000	4698.59400
2.30567	0.00000	4698.59400
2.30951	0.00000	4698.59400
2.31333	0.00000	4698.59400
2.31717	0.00000	4698.59400
2.32101	0.00000	4698.59400
2.32485	0.00000	4698.59400
2.32868	0.00000	4698.59400
2.33252	0.00000	4698.59400
2.33635	0.00000	4698.59400
2.34019	0.00000	4698.59400
2.34402	0.00000	4698.59400
2.34784	0.00000	4729.10500
2.35168	0.00000	4729.10500
2.35551	0.00000	4729.10500
2.35935	0.00000	4729.10500
2.36318	0.00000	4729.10500
2.36700	0.00000	4729.10500
2.37083	0.00000	4718.01000
2.37466	0.00000	4718.01000
2.37850	0.00000	4718.01000
2.38233	0.00000	4718.01000
2.38618	0.00000	4718.01000
2.39001	0.00000	4718.19200
2.39385	0.00000	4718.19200
2.39768	0.00000	4718.19200
2.40152	0.00000	4718.19200
2.40536	0.00000	4718.19200
2.40920	0.00000	4718.19200
2.41306	0.00000	4715.23700
2.41691	0.00000	4715.23700
2.42076	0.00000	4715.23700
2.42460	0.00000	4715.23700
2.42844	0.00000	4715.23700
2.43227	0.00000	4715.23700
2.43611	0.00000	4709.55900
2.43994	0.00000	4709.55900
2.44378	0.00000	4709.55900
2.44761	0.00000	4709.55900
2.45144	0.00000	4709.55900
2.45528	0.00000	4709.55900
2.45911	0.00000	4718.01000
2.46295	0.00000	4718.01000
2.46678	0.00000	4718.01000
2.47062	0.00000	4718.01000
2.47445	0.00000	4718.01000
2.47828	0.00000	4732.14200
2.48212	0.00000	4732.14200
2.48596	0.00000	4732.14200
2.48978	0.00000	4732.14200
2.49361	0.00000	4732.14200
2.49744	0.00000	4732.14200
2.50127	0.00000	4706.91500
2.50511	0.00000	4706.91500
2.50895	0.00000	4706.91500
2.51279	0.00000	4706.91500
2.51661	0.00000	4706.91500
2.52044	0.00000	4706.91500
2.52428	0.00000	4720.78400
2.52811	0.00000	4720.78400
2.53195	0.00000	4720.78400
2.53579	0.00000	4720.78400
2.53962	0.00000	4720.78400
2.54349	0.00000	4720.78400
2.54733	0.00000	4718.01000
2.55117	0.00000	4718.01000
2.55501	0.00000	4718.01000
2.55884	0.00000	4718.01000
2.56268	0.00000	4718.01000
2.56651	0.00000	4729.35200
2.57035	0.00000	4729.35200
2.57419	0.00000	4729.35200
2.57803	0.00000	4729.35200
2.58186	0.00000	4729.35200
2.58569	0.00000	4729.35200
2.58952	0.00000	4693.01400
2.59335	0.00000	4693.01400
2.59718	0.00000	4693.01400
2.60101	0.00000	4693.01400
2.60485	0.00000	4693.01400
2.60870	0.00000	4693.01400
2.61254	0.00000	4737.42600
2.61637	0.00000	4737.42600
2.62020	0.00000	4737.42600
2.62404	0.00000	4737.42600
2.62787	0.00000	4737.42600
2.63169	0.00000	4737.42600
2.63551	0.00000	4723.55700
2.63935	0.00000	4723.55700
2.64320	0.00000	4723.55700
2.64703	0.00000	4723.55700
2.65087	0.00000	4723.55700
2.65469	0.00000	4698.59400
2.65854	0.00000	4698.59400
2.66238	0.00000	4698.59400
2.66621	0.00000	4698.59400
2.67005	0.00000	4698.59400
2.67388	0.00000	4698.59400
2.67772	0.00000	4729.10500
2.68155	0.00000	4729.10500
2.68538	0.00000	4729.10500
2.68921	0.00000	4729.10500
2.69304	0.00000	4729.10500
2.69688	0.00000	4729.10500
2.70071	0.00000	4729.10500
2.70455	0.00000	4729.10500
2.70837	0.00000	4729.10500
2.71221	0.00000	4729.10500
2.71603	0.00000	4729.10500
2.71986	0.00000	4729.10500
2.72371	0.00000	4704.04400
2.72754	0.00000	4704.04400
2.73137	0.00000	4704.04400
2.73520	0.00000	4704.04400
2.73905	0.00000	4704.04400
2.74287	0.00000	4732.14200
2.74669	0.00000	4732.14200
2.75053	0.00000	4732.14200
2.75437	0.00000	4732.14200
2.75819	0.00000	4732.14200
2.76203	0.00000	4732.14200
2.76586	0.00000	4706.91500
2.76969	0.00000	4706.91500
2.77352	0.00000	4706.91500
2.77737	0.00000	4706.91500
2.78120	0.00000	4706.91500
2.78504	0.00000	4706.91500
2.78887	0.00000	4712.31600
2.79270	0.00000	4712.31600
2.79654	0.00000	4712.31600
2.80037	0.00000	4712.31600
2.80421	0.00000	4712.31600
2.80805	0.00000	4712.31600
2.81188	0.00000	4720.78400
2.81571	0.00000	4720.78400
2.81954	0.00000	4720.78400
2.82337	0.00000	4720.78400
2.82720	0.00000	4720.78400
2.83104	0.00000	4720.98200
2.83488	0.00000	4720.98200
2.83872	0.00000	4720.98200
2.84255	0.00000	4720.98200
2.84638	0.00000	4720.98200
2.85022	0.00000	4720.98200
2.85405	0.00000	4701.36800
2.85788	0.00000	4701.36800
2.86172	0.00000	4701.36800
2.86556	0.00000	4701.36800
2.86940	0.00000	4701.36800
2.87324	0.00000	4701.36800
2.87706	0.00000	4723.55700
2.88089	0.00000	4723.55700
2.88472	0.00000	4723.55700
2.88855	0.00000	4723.55700
2.89239	0.00000	4723.55700
2.89622	0.00000	4723.55700
2.90005	0.00000	4723.55700
2.90388	0.00000	4723.55700
2.90771	0.00000	4723.55700
2.91153	0.00000	4723.55700
2.91536	0.00000	4723.55700
2.91920	0.00000	4693.04700
2.92303	0.00000	4693.04700
2.92686	0.00000	4693.04700
2.93070	0.00000	4693.04700
2.93453	0.00000	4693.04700
2.93836	0.00000	4693.04700
2.94220	0.00000	4701.36800
2.94603	0.00000	4701.36800
2.94986	0.00000	4701.36800
2.95369	0.00000	4701.36800
2.95752	0.00000	4701.36800
2.96136	0.00000	4701.36800
2.96521	0.00000	4704.04400
2.96904	0.00000	4704.04400
2.97287	0.00000	4704.04400
2.97671	0.00000	4704.04400
2.98054	0.00000	4704.04400
2.98437	0.00000	4704.04400
2.98821	0.00000	4715.23700
2.99204	0.00000	4715.23700
2.99587	0.00000	4715.23700
2.99970	0.00000	4715.23700
3.00353	0.00000	4715.23700
3.00738	0.00000	4704.14200
3.01120	0.00000	4704.14200
3.01505	0.00000	4704.14200
3.01888	0.00000	4704.14200
3.02273	0.00000	4704.14200
3.02656	0.00000	4704.14200
3.03040	0.00000	4706.91500
3.03422	0.00000	4706.91500
3.03806	0.00000	4706.91500
3.04189	0.00000	4706.91500
3.04573	0.00000	4706.91500
3.04956	0.00000	4706.91500
3.05340	0.00000	4701.28600
3.05724	0.00000	4701.28600
3.06107	0.00000	4701.28600
3.06490	0.00000	4701.28600
3.06873	0.00000	4701.28600
3.07256	0.00000	4701.28600
3.07640	0.00000	4726.33100
3.08024	0.00000	4726.33100
3.08408	0.00000	4726.33100
3.08792	0.00000	4726.33100
3.09177	0.00000	4726.33100
3.09560	0.00000	4726.33100
3.09942	0.00000	4746.09400
3.10326	0.00000	4746.09400
3.10710	0.00000	4746.09400
3.11093	0.00000	4746.09400
3.11476	0.00000	4746.09400
3.11860	0.00000	4726.56200
3.12243	0.00000	4726.56200
3.12627	0.00000	4726.56200
3.13011	0.00000	4726.56200
3.13394	0.00000	4726.56200
3.13778	0.00000	4726.56200
3.14161	0.00000	4734.65200
3.14544	0.00000	4734.65200
3.14927	0.00000	4734.65200
3.15311	0.00000	4734.65200
3.15695	0.00000	4734.65200
3.16078	0.00000	4734.65200
3.16461	0.00000	4734.65200
3.16845	0.00000	4734.65200
3.17227	0.00000	4734.65200
3.17610	0.00000	4734.65200
3.17995	0.00000	4734.65200
3.18378	0.00000	4734.65200
3.18760	0.00000	4726.33100
3.19143	0.00000	4726.33100
3.19525	0.00000	4726.33100
3.19909	0.00000	4726.33100
3.20293	0.00000	4726.33100
3.20676	0.00000	4732.14200
3.21063	0.00000	4732.14200
3.21446	0.00000	4732.14200
3.21830	0.00000	4732.14200
3.22213	0.00000	4732.14200
3.22597	0.00000	4732.14200
3.22980	0.00000	4731.87800
3.23364	0.00000	4731.87800
3.23748	0.00000	4731.87800
3.24131	0.00000	4731.87800
3.24514	0.00000	4731.87800
3.24897	0.00000	4731.87800
3.25279	0.00000	4704.04400
3.25661	0.00000	4704.04400
3.26045	0.00000	4704.04400
3.26428	0.00000	4704.04400
3.26811	0.00000	4704.04400
3.27194	0.00000	4704.04400
3.27578	0.00000	4726.33100
3.27961	0.00000	4726.33100
3.28344	0.00000	4726.33100
3.28728	0.00000	4726.33100
3.29111	0.00000	4726.33100
3.29495	0.00000	4723.77200
3.29879	0.00000	4723.77200
3.30263	0.00000	4723.77200
3.30647	0.00000	4723.77200
3.31029	0.00000	4723.77200
3.31412	0.00000	4723.77200
3.31797	0.00000	4695.77200
3.32181	0.00000	4695.77200
3.32564	0.00000	4695.77200
3.32947	0.00000	4695.77200
3.33331	0.00000	4695.77200
3.33714	0.00000	4695.77200
3.34097	0.00000	4723.55700
3.34480	0.00000	4723.55700
3.34861	0.00000	4723.55700
3.35244	0.00000	4723.55700
3.35626	0.00000	4723.55700
3.36009	0.00000	4723.55700
3.36392	0.00000	4723.55700
3.36775	0.00000	4723.55700
3.37159	0.00000	4723.55700
3.37542	0.00000	4723.55700
3.37924	0.00000	4723.55700
3.38308	0.00000	4723.77200
3.38693	0.00000	4723.77200
3.39078	0.00000	4723.77200
3.39461	0.00000	4723.77200
3.39844	0.00000	4723.77200
3.40227	0.00000	4723.77200
3.40610	0.00000	4731.87800
3.40994	0.00000	4731.87800
3.41378	0.00000	4731.87800
3.41760	0.00000	4731.87800
3.42144	0.00000	4731.87800
3.42527	0.00000	4731.87800
3.42910	0.00000	4731.87800
3.43293	0.00000	4731.87800
3.43677	0.00000	4731.87800
3.44059	0.00000	4731.87800
3.44443	0.00000	4731.87800
3.44826	0.00000	4731.87800
3.45209	0.00000	4695.77200
3.45592	0.00000	4695.77200
3.45976	0.00000	4695.77200
3.46359	0.00000	4695.77200
3.46742	0.00000	4695.77200
3.47125	0.00000	4726.56200
3.47509	0.00000	4726.56200
3.47891	0.00000	4726.56200
3.48275	0.00000	4726.56200
3.48658	0.00000	4726.56200
3.49041	0.00000	4726.56200
3.49424	0.00000	4698.52900
3.49807	0.00000	4698.52900
3.50190	0.00000	4698.52900
3.50574	0.00000	4698.52900
3.50958	0.00000	4698.52900
3.51341	0.00000	4698.52900
3.51724	0.00000	4701.28600
3.52108	0.00000	4701.28600
3.52492	0.00000	4701.28600
3.52876	0.00000	4701.28600
3.53259	0.00000	4701.28600
3.53643	0.00000	4701.28600
3.54027	0.00000	4723.55700
3.54414	0.00000	4723.55700
3.54799	0.00000	4723.55700
3.55183	0.00000	4723.55700
3.55568	0.00000	4723.55700
3.55952	0.00000	4695.82100
3.56335	0.00000	4695.82100
3.56719	0.00000	4695.82100
3.57102	0.00000	4695.82100
3.57485	0.00000	4695.82100
3.57869	0.00000	4695.82100
3.58253	0.00000	4723.55700
3.58637	0.00000	4723.55700
3.59020	0.00000	4723.55700
3.59403	0.00000	4723.55700
3.59787	0.00000	4723.55700
3.60170	0.00000	4723.55700
3.60556	0.00000	4726.33100
3.60940	0.00000	4726.33100
3.61323	0.00000	4726.33100
3.61706	0.00000	4726.33100
3.62090	0.00000	4726.33100
3.62474	0.00000	4726.33100
3.62857	0.00000	4720.78400
3.63241	0.00000	4720.78400
3.63626	0.00000	4720.78400
3.64009	0.00000	4720.78400
3.64393	0.00000	4720.78400
3.64776	0.00000	4723.77200
3.65160	0.00000	4723.77200
3.65543	0.00000	4723.77200
3.65927	0.00000	4723.77200
3.66310	0.00000	4723.77200
3.66694	0.00000	4723.77200
3.67077	0.00000	4693.01400
3.67460	0.00000	4693.01400
3.67844	0.00000	4693.01400
3.68227	0.00000	4693.01400
3.68611	0.00000	4693.01400
3.68994	0.00000	4693.01400
3.69377	0.00000	4729.10500
3.69761	0.00000	4729.10500
3.70145	0.00000	4729.10500
3.70529	0.00000	4729.10500
3.70913	0.00000	4729.10500
3.71296	0.00000	4729.10500
3.71680	0.00000	4737.42600
3.72062	0.00000	4737.42600
3.72446	0.00000	4737.42600
3.72829	0.00000	4737.42600
3.73213	0.00000	4737.42600
3.73596	0.00000	4690.27400
3.73978	0.00000	4690.27400
3.74361	0.00000	4690.27400
3.74744	0.00000	4690.27400
3.75128	0.00000	4690.27400
3.75511	0.00000	4690.27400
3.75894	0.00000	4712.46300
3.76277	0.00000	4712.46300
3.76661	0.00000	4712.46300
3.77045	0.00000	4712.46300
3.77428	0.00000	4712.46300
3.77812	0.00000	4712.46300
3.78196	0.00000	4698.52900
3.78579	0.00000	4698.52900
3.78961	0.00000	4698.52900
3.79343	0.00000	4698.52900
3.79726	0.00000	4698.52900
3.80110	0.00000	4698.52900
3.80494	0.00000	4718.01000
3.80877	0.00000	4718.01000
3.81260	0.00000	4718.01000
3.81645	0.00000	4718.01000
3.82029	0.00000	4718.01000
3.82413	0.00000	4706.91500
3.82798	0.00000	4706.91500
3.83181	0.00000	4706.91500
3.83564	0.00000	4706.91500
3.83947	0.00000	4706.91500
3.84331	0.00000	4706.91500
3.84714	0.00000	4729.35200
3.85097	0.00000	4729.35200
3.85481	0.00000	4729.35200
3.85864	0.00000	4729.35200
3.86247	0.00000	4729.35200
3.86631	0.00000	4729.35200
3.87014	0.00000	4687.50000
3.87397	0.00000	4687.50000
3.87779	0.00000	4687.50000
3.88162	0.00000	4687.50000
3.88546	0.00000	4687.50000
3.88930	0.00000	4687.50000
3.89313	0.00000	4720.78400
3.89695	0.00000	4720.78400
3.90078	0.00000	4720.78400
3.90461	0.00000	4720.78400
3.90846	0.00000	4720.78400
3.91230	0.00000	4704.14200
3.91613	0.00000	4704.14200
3.91996	0.00000	4704.14200
3.92379	0.00000	4704.14200
3.92763	0.00000	4704.14200
3.93146	0.00000	4704.14200
3.93530	0.00000	4709.68900
3.93913	0.00000	4709.68900
3.94296	0.00000	4709.68900
3.94680	0.00000	4709.68900
3.95062	0.00000	4709.68900
3.95445	0.00000	4709.68900
3.95828	0.00000	4695.77200
3.96211	0.00000	4695.77200
3.96594	0.00000	4695.77200
3.96977	0.00000	4695.77200
3.97360	0.00000	4695.77200
3.97743	0.00000	4695.77200
3.98126	0.00000	4720.78400
3.98510	0.00000	4720.78400
3.98893	0.00000	4720.78400
3.99277	0.00000	4720.78400
3.99660	0.00000	4720.78400
4.00044	0.00000	4726.56200
4.00427	0.00000	4726.56200
4.00810	0.00000	4726.56200
4.01193	0.00000	4726.56200
4.01577	0.00000	4726.56200
4.01961	0.00000	4726.56200
4.02345	0.00000	4746.09400
4.02728	0.00000	4746.09400
4.03112	0.00000	4746.09400
4.03496	0.00000	4746.09400
4.03879	0.00000	4746.09400
4.04263	0.00000	4746.09400
4.04646	0.00000	4723.55700
4.05029	0.00000	4723.55700
4.05412	0.00000	4723.55700
4.05795	0.00000	4723.55700
4.06178	0.00000	4723.55700
4.06561	0.00000	4723.55700
4.06945	0.00000	4695.77200
4.07328	0.00000	4695.77200
4.07712	0.00000	4695.77200
4.08096	0.00000	4695.77200
4.08479	0.00000	4695.77200
4.08861	0.00000	4737.72300
4.09244	0.00000	4737.72300
4.09626	0.00000	4737.72300
4.10010	0.00000	4737.72300
4.10393	0.00000	4737.72300
4.10776	0.00000	4737.72300
4.11159	0.00000	4706.91500
4.11542	0.00000	4706.91500
4.11925	0.00000	4706.91500
4.12308	0.00000	4706.91500
4.12692	0.00000	4706.91500
4.13075	0.00000	4706.91500
4.13459	0.00000	4734.65200
4.13842	0.00000	4734.65200
4.14226	0.00000	4734.65200
4.14609	0.00000	4734.65200
4.14992	0.00000	4734.65200
4.15375	0.00000	4734.65200
4.15759	0.00000	4715.23700
4.16142	0.00000	4715.23700
4.16525	0.00000	4715.23700
4.16909	0.00000	4715.23700
4.17293	0.00000	4715.23700
4.17677	0.00000	4704.14200
4.18059	0.00000	4704.14200
4.18444	0.00000	4704.14200
4.18828	0.00000	4704.14200
4.19211	0.00000	4704.14200
4.19594	0.00000	4704.14200
4.19977	0.00000	4706.91500
4.20359	0.00000	4706.91500
4.20742	0.00000	4706.91500
4.21125	0.00000	4706.91500
4.21509	0.00000	4706.91500
4.21892	0.00000	4706.91500
4.22276	0.00000	4701.28600
4.22659	0.00000	4701.28600
4.23043	0.00000	4701.28600
4.23426	0.00000	4701.28600
4.23810	0.00000	4701.28600
4.24194	0.00000	4701.28600
4.24579	0.00000	4729.10500
4.24961	0.00000	4729.10500
4.25344	0.00000	4729.10500
4.25727	0.00000	4729.10500
4.26110	0.00000	4729.10500
4.26494	0.00000	4729.10500
4.26876	0.00000	4732.14200
4.27260	0.00000	4732.14200
4.27644	0.00000	4732.14200
4.28027	0.00000	4732.14200
4.28410	0.00000	4732.14200
4.28792	0.00000	4726.56200
4.29176	0.00000	4726.56200
4.29559	0.00000	4726.56200
4.29942	0.00000	4726.56200
4.30324	0.00000	4726.56200
4.30707	0.00000	4726.56200
4.31092	0.00000	4695.77200
4.31474	0.00000	4695.77200
4.31859	0.00000	4695.77200
4.32243	0.00000	4695.77200
4.32626	0.00000	4695.77200
4.33009	0.00000	4695.77200
4.33393	0.00000	4704.04400
4.33776	0.00000	4704.04400
4.34159	0.00000	4704.04400
4.34543	0.00000	4704.04400
4.34926	0.00000	4704.04400
4.35310	0.00000	4704.04400
4.35692	0.00000	4729.35200
4.36076	0.00000	4729.35200
4.36459	0.00000	4729.35200
4.36843	0.00000	4729.35200
4.37227	0.00000	4729.35200
4.37611	0.00000	4709.68900
4.37996	0.00000	4709.68900
4.38380	0.00000	4709.68900
4.38763	0.00000	4709.68900
4.39147	0.00000	4709.68900
4.39530	0.00000	4709.68900
4.39914	0.00000	4731.87800
4.40297	0.00000	4731.87800
4.40681	0.00000	4731.87800
4.41065	0.00000	4731.87800
4.41448	0.00000	4731.87800
4.41832	0.00000	4731.87800
4.42215	0.00000	4720.78400
4.42599	0.00000	4720.78400
4.42982	0.00000	4720.78400
4.43365	0.00000	4720.78400
4.43748	0.00000	4720.78400
4.44131	0.00000	4720.78400
4.44513	0.00000	4709.68900
4.44897	0.00000	4709.68900
4.45279	0.00000	4709.68900
4.45661	0.00000	4709.68900
4.46045	0.00000	4709.68900
4.46427	0.00000	4718.19200
4.46810	0.00000	4718.19200
4.47193	0.00000	4718.19200
4.47577	0.00000	4718.19200
4.47960	0.00000	4718.19200
4.48342	0.00000	4718.19200
4.48726	0.00000	4729.10500
4.49110	0.00000	4729.10500
4.49493	0.00000	4729.10500
4.49877	0.00000	4729.10500
4.50260	0.00000	4729.10500
4.50643	0.00000	4729.10500
4.51027	0.00000	4731.87800
4.51410	0.00000	4731.87800
4.51794	0.00000	4731.87800
4.52177	0.00000	4731.87800
4.52561	0.00000	4731.87800
4.52944	0.00000	4731.87800
4.53326	0.00000	4715.23700
4.53710	0.00000	4715.23700
4.54093	0.00000	4715.23700
4.54481	0.00000	4715.23700
4.54861	0.00000	4715.23700
4.55244	0.00000	4729.35200
4.55628	0.00000	4729.35200
4.56012	0.00000	4729.35200
4.56396	0.00000	4729.35200
4.56780	0.00000	4729.35200
4.57163	0.00000	4729.35200
4.57546	0.00000	4718.01000
4.57929	0.00000	4718.01000
4.58313	0.00000	4718.01000
4.58696	0.00000	4718.01000
4.59079	0.00000	4718.01000
4.59462	0.00000	4718.01000
4.59847	0.00000	4712.46300
4.60230	0.00000	4712.46300
4.60615	0.00000	4712.46300
4.60998	0.00000	4712.46300
4.61382	0.00000	4712.46300
4.61765	0.00000	4712.46300
4.62148	0.00000	4709.68900
4.62532	0.00000	4709.68900
4.62915	0.00000	4709.68900
4.63299	0.00000	4709.68900
4.63682	0.00000	4709.68900
4.64061	0.00000	4712.61200
4.64445	0.00000	4712.61200
4.64828	0.00000	4712.61200
4.65212	0.00000	4712.61200
4.65595	0.00000	4712.61200
4.65978	0.00000	4712.61200
4.66361	0.00000	4709.55900
4.66746	0.00000	4709.55900
4.67129	0.00000	4709.55900
4.67513	0.00000	4709.55900
4.67897	0.00000	4709.55900
4.68281	0.00000	4709.55900
4.68665	0.00000	4726.33100
4.69048	0.00000	4726.33100
4.69433	0.00000	4726.33100
4.69817	0.00000	4726.33100
4.70200	0.00000	4726.33100
4.70584	0.00000	4726.33100
4.70967	0.00000	4723.55700
4.71351	0.00000	4723.55700
4.71735	0.00000	4723.55700
4.72118	0.00000	4723.55700
4.72502	0.00000	4723.55700
4.72884	0.00000	4715.40200
4.73269	0.00000	4715.40200
4.73652	0.00000	4715.40200
4.74035	0.00000	4715.40200
4.74418	0.00000	4715.40200
4.74801	0.00000	4715.40200
4.75185	0.00000	4720.78400
4.75568	0.00000	4720.78400
4.75951	0.00000	4720.78400
4.76336	0.00000	4720.78400
4.76719	0.00000	4720.78400
4.77102	0.00000	4720.78400
4.77485	0.00000	4720.78400
4.77868	0.00000	4720.78400
4.78252	0.00000	4720.78400
4.78634	0.00000	4720.78400
4.79017	0.00000	4720.78400
4.79401	0.00000	4720.78400
4.79786	0.00000	4720.78400
4.80170	0.00000	4720.78400
4.80555	0.00000	4720.78400
4.80938	0.00000	4720.78400
4.81321	0.00000	4720.78400
4.81705	0.00000	4718.19200
4.82090	0.00000	4718.19200
4.82474	0.00000	4718.19200
4.82858	0.00000	4718.19200
4.83242	0.00000	4718.19200
4.83626	0.00000	4718.19200
4.84010	0.00000	4729.10500
4.84394	0.00000	4729.10500
4.84778	0.00000	4729.10500
4.85161	0.00000	4729.10500
4.85543	0.00000	4729.10500
4.85925	0.00000	4729.10500
4.86309	0.00000	4693.01400
4.86694	0.00000	4693.01400
4.87077	0.00000	4693.01400
4.87461	0.00000	4693.01400
4.87845	0.00000	4693.01400
4.88228	0.00000	4693.01400
4.88611	0.00000	4712.46300
4.88994	0.00000	4712.46300
4.89378	0.00000	4712.46300
4.89761	0.00000	4712.46300
4.90144	0.00000	4712.46300
4.90527	0.00000	4715.40200
4.90911	0.00000	4715.40200
4.91294	0.00000	4715.40200
4.91678	0.00000	4715.40200
4.92060	0.00000	4715.40200
4.92444	0.00000	4715.40200
4.92827	0.00000	4720.78400
4.93210	0.00000	4720.78400
4.93593	0.00000	4720.78400
4.93976	0.00000	4720.78400
4.94359	0.00000	4720.78400
4.94742	0.00000	4720.78400
4.95126	0.00000	4712.46300
4.95509	0.00000	4712.46300
4.95893	0.00000	4712.46300
4.96275	0.00000	4712.46300
4.96658	0.00000	4712.46300
4.97042	0.00000	4712.46300
4.97425	0.00000	4718.01000
4.97809	0.00000	4718.01000
4.98193	0.00000	4718.01000
4.98576	0.00000	4718.01000
4.98959	0.00000	4718.01000
4.99343	0.00000	4709.82100
4.99726	0.00000	4709.82100
5.00164	0.00000	4709.82100
5.00552	0.00000	4709.82100
5.00938	0.00000	4709.82100
5.01321	0.00000	4709.82100
5.01706	0.00000	4726.33100
5.02090	0.00000	4726.33100
5.02474	0.00000	4726.33100
5.02859	0.00000	4726.33100
5.03252	0.00000	4726.33100
5.03638	0.00000	4726.33100
5.04022	0.00000	4747.80700
5.04407	0.00000	4747.80700
5.04791	0.00000	4747.80700
5.05175	0.00000	4747.80700
5.05559	0.00000	4747.80700
5.05943	0.00000	4747.80700
5.06326	0.00000	4793.78600
5.06710	0.00000	4793.78600
5.07094	0.00000	4793.78600
5.07478	0.00000	4793.78600
5.07862	0.00000	4793.78600
5.08245	0.00000	4844.65300
5.08629	0.00000	4844.65300
5.09013	0.00000	4844.65300
5.09397	0.00000	4844.65300
5.09781	0.00000	4844.65300
5.10165	0.00000	4844.65300
5.10549	0.00000	4864.28500
5.10935	0.00000	4864.28500
5.11318	0.00000	4864.28500
5.11703	0.00000	4864.28500
5.12086	0.00000	4864.28500
5.12470	0.00000	4864.28500
5.12853	0.00000	4900.56800
5.13237	0.00000	4900.56800
5.13620	0.00000	4900.56800
5.14004	0.00000	4900.56800
5.14388	0.00000	4900.56800
5.14772	0.00000	4900.56800
5.15155	0.00000	4907.30900
5.15540	0.00000	4907.30900
5.15925	0.00000	4907.30900
5.16309	0.00000	4907.30900
5.16692	0.00000	4907.30900
5.17075	0.00000	4907.30900
5.17461	0.00000	4941.73700
5.17844	0.00000	4941.73700
5.18228	0.00000	4941.73700
5.18610	0.00000	4941.73700
5.18994	0.00000	4941.73700
5.19377	0.00000	4941.73700
5.19761	0.00000	4945.57500
5.20144	0.00000	4945.57500
5.20527	0.00000	4945.57500
5.20910	0.00000	4945.57500
5.21294	0.00000	4945.57500
5.21676	0.00000	4945.57500
5.22059	0.00000	4945.57500
5.22443	0.00000	4949.37100
5.22826	0.00000	4949.37100
5.23210	0.00000	4949.37100
5.23593	0.00000	4949.37100
5.23977	0.00000	4949.37100
5.24360	0.00000	4949.37100
5.24743	0.00000	4970.32100
5.25127	0.00000	4970.32100
5.25510	0.00000	4970.32100
5.25893	0.00000	4970.32100
5.26278	0.00000	4970.32100
5.26661	0.00000	4970.32100
5.27046	0.00000	4958.33300
5.27430	0.00000	4958.33300
5.27815	0.00000	4958.33300
5.28198	0.00000	4958.33300
5.28582	0.00000	4958.33300
5.28965	0.00000	4958.33300
5.29350	0.00000	4976.56200
5.29734	0.00000	4976.56200
5.30118	0.00000	4976.56200
5.30501	0.00000	4976.56200
5.30885	0.00000	4976.56200
5.31268	0.00000	4976.56200
5.31652	0.00000	4986.97900
5.32035	0.00000	4986.97900
5.32419	0.00000	4986.97900
5.32802	0.00000	4986.97900
5.33185	0.00000	4986.97900
5.33569	0.00000	4986.97900
5.33952	0.00000	5013.02100
5.34335	0.00000	5013.02100
5.34718	0.00000	5013.02100
5.35101	0.00000	5013.02100
5.35484	0.00000	5013.02100
5.35867	0.00000	5013.02100
5.36251	0.00000	5005.20800
5.36635	0.00000	5005.20800
5.37020	0.00000	5005.20800
5.37403	0.00000	5005.20800
5.37787	0.00000	5005.20800
5.38171	0.00000	5005.20800
5.38554	0.00000	4980.14500
5.38939	0.00000	4980.14500
5.39322	0.00000	4980.14500
5.39706	0.00000	4980.14500
5.40090	0.00000	4980.14500
5.40474	0.00000	4980.14500
5.40856	0.00000	4980.14500
5.41241	0.00000	4987.91400
5.41624	0.00000	4987.91400
5.42007	0.00000	4987.91400
5.42391	0.00000	4987.91400
5.42776	0.00000	4987.91400
5.43159	0.00000	4987.91400
5.43545	0.00000	4995.68300
5.43928	0.00000	4995.68300
5.44311	0.00000	4995.68300
5.44694	0.00000	4995.68300
5.45077	0.00000	4995.68300
5.45461	0.00000	4995.68300
5.45845	0.00000	5006.04200
5.46229	0.00000	5006.04200
5.46613	0.00000	5006.04200
5.46996	0.00000	5006.04200
5.47380	0.00000	5006.04200
5.47763	0.00000	5006.04200
5.48146	0.00000	4983.68800
5.48529	0.00000	4983.68800
5.48913	0.00000	4983.68800
5.49297	0.00000	4983.68800
5.49680	0.00000	4983.68800
5.50062	0.00000	4983.68800
5.50445	0.00000	5006.04200
5.50829	0.00000	5006.04200
5.51213	0.00000	5006.04200
5.51596	0.00000	5006.04200
5.51980	0.00000	5006.04200
5.52364	0.00000	5006.04200
5.52747	0.00000	5011.22200
5.53133	0.00000	5011.22200
5.53518	0.00000	5011.22200
5.53913	0.00000	5011.22200
5.54301	0.00000	5011.22200
5.54685	0.00000	5011.22200
5.55068	0.00000	5016.40200
5.55451	0.00000	5016.40200
5.55835	0.00000	5016.40200
5.56219	0.00000	5016.40200
5.56602	0.00000	5016.40200
5.56987	0.00000	5016.40200
5.57371	0.00000	5016.40200
5.57756	0.00000	5016.40200
5.58140	0.00000	5016.40200
5.58524	0.00000	5016.40200
5.58907	0.00000	5016.40200
5.59291	0.00000	5016.40200
5.59675	0.00000	5016.40200
5.60059	0.00000	5003.45300
5.60443	0.00000	5003.45300
5.60826	0.00000	5003.45300
5.61209	0.00000	5003.45300
5.61592	0.00000	5003.45300
5.61976	0.00000	5003.45300
5.62360	0.00000	5006.04200
5.62745	0.00000	5006.04200
5.63129	0.00000	5006.04200
5.63512	0.00000	5006.04200
5.63896	0.00000	5006.04200
5.64281	0.00000	5006.04200
5.64665	0.00000	5003.45300
5.65048	0.00000	5003.45300
5.65432	0.00000	5003.45300
5.65818	0.00000	5003.45300
5.66200	0.00000	5003.45300
5.66584	0.00000	5003.45300
5.66967	0.00000	5008.63200
5.67351	0.00000	5008.63200
5.67734	0.00000	5008.63200
5.68118	0.00000	5008.63200
5.68502	0.00000	5008.63200
5.68884	0.00000	5008.63200
5.69268	0.00000	5006.04200
5.69652	0.00000	5006.04200
5.70035	0.00000	5006.04200
5.70418	0.00000	5006.04200
5.70802	0.00000	5006.04200
5.71185	0.00000	5006.04200
5.71569	0.00000	5006.04200
5.71952	0.00000	4993.99000
5.72335	0.00000	4993.99000
5.72719	0.00000	4993.99000
5.73102	0.00000	4993.99000
5.73488	0.00000	4993.99000
5.73871	0.00000	4993.99000
5.74255	0.00000	4986.26300
5.74638	0.00000	4986.26300
5.75023	0.00000	4986.26300
5.75405	0.00000	4986.26300
5.75789	0.00000	4986.26300
5.76172	0.00000	4986.26300
5.76556	0.00000	5013.81200
5.76940	0.00000	5013.81200
5.77323	0.00000	5013.81200
5.77706	0.00000	5013.81200
5.78089	0.00000	5013.81200
5.78473	0.00000	5013.81200
5.78856	0.00000	5011.22200
5.79240	0.00000	5011.22200
5.79624	0.00000	5011.22200
5.80008	0.00000	5011.22200
5.80392	0.00000	5011.22200
5.80775	0.00000	5011.22200
5.81157	0.00000	5011.22200
5.81540	0.00000	5011.22200
5.81924	0.00000	5011.22200
5.82307	0.00000	5011.22200
5.82691	0.00000	5011.22200
5.83074	0.00000	5011.22200
5.83457	0.00000	5013.81200
5.83842	0.00000	5013.81200
5.84225	0.00000	5013.81200
5.84608	0.00000	5013.81200
5.84992	0.00000	5013.81200
5.85377	0.00000	5013.81200
5.85760	0.00000	5011.22200
5.86144	0.00000	5011.22200
5.86526	0.00000	5011.22200
5.86910	0.00000	5011.22200
5.87292	0.00000	5011.22200
5.87675	0.00000	5011.22200
5.88059	0.00000	5011.22200
5.88443	0.00000	5024.17100
5.88827	0.00000	5024.17100
5.89209	0.00000	5024.17100
5.89592	0.00000	5024.17100
5.89976	0.00000	5024.17100
5.90360	0.00000	5024.17100
5.90743	0.00000	4981.11200
5.91127	0.00000	4981.11200
5.91511	0.00000	4981.11200
5.91895	0.00000	4981.11200
5.92278	0.00000	4981.11200
5.92661	0.00000	4981.11200
5.93044	0.00000	5011.22200
5.93428	0.00000	5011.22200
5.93811	0.00000	5011.22200
5.94195	0.00000	5011.22200
5.94579	0.00000	5011.22200
5.94963	0.00000	5011.22200
5.95346	0.00000	5011.22200
5.95729	0.00000	5011.22200
5.96112	0.00000	5011.22200
5.96496	0.00000	5011.22200
5.96879	0.00000	5011.22200
5.97262	0.00000	5011.22200
5.97645	0.00000	5013.81200
5.98029	0.00000	5013.81200
5.98412	0.00000	5013.81200
5.98796	0.00000	5013.81200
5.99179	0.00000	5013.81200
5.99563	0.00000	5013.81200
5.99947	0.00000	5011.22200
6.00329	0.00000	5011.22200
6.00712	0.00000	5011.22200
6.01096	0.00000	5011.22200
6.01478	0.00000	5011.22200
6.01861	0.00000	5011.22200
6.02245	0.00000	5011.22200
6.02629	0.00000	4996.56600
6.03012	0.00000	4996.56600
6.03396	0.00000	4996.56600
6.03780	0.00000	4996.56600
6.04163	0.00000	4996.56600
6.04546	0.00000	4996.56600
6.04929	0.00000	5018.99100
6.05313	0.00000	5018.99100
6.05697	0.00000	5018.99100
6.06080	0.00000	5018.99100
6.06461	0.00000	5018.99100
6.06844	0.00000	5018.99100
6.07227	0.00000	5013.81200
6.07610	0.00000	5013.81200
6.07994	0.00000	5013.81200
6.08378	0.00000	5013.81200
6.08762	0.00000	5013.81200
6.09145	0.00000	5013.81200
6.09528	0.00000	5013.81200
6.09910	0.00000	5013.81200
6.10293	0.00000	5013.81200
6.10676	0.00000	5013.81200
6.11061	0.00000	5013.81200
6.11445	0.00000	5013.81200
6.11828	0.00000	5021.58100
6.12213	0.00000	5021.58100
6.12596	0.00000	5021.58100
6.12980	0.00000	5021.58100
6.13363	0.00000	5021.58100
6.13746	0.00000	5021.58100
6.14130	0.00000	4988.83900
6.14515	0.00000	4988.83900
6.14899	0.00000	4988.83900
6.15279	0.00000	4988.83900
6.15661	0.00000	4988.83900
6.16045	0.00000	4988.83900
6.16428	0.00000	4988.83900
6.16811	0.00000	5001.71700
6.17195	0.00000	5001.71700
6.17579	0.00000	5001.71700
6.17962	0.00000	5001.71700
6.18345	0.00000	5001.71700
6.18729	0.00000	5001.71700
6.19112	0.00000	4988.83900
6.19495	0.00000	4988.83900
6.19878	0.00000	4988.83900
6.20262	0.00000	4988.83900
6.20645	0.00000	4988.83900
6.21029	0.00000	4988.83900
6.21413	0.00000	5008.63200
6.21796	0.00000	5008.63200
6.22179	0.00000	5008.63200
6.22562	0.00000	5008.63200
6.22945	0.00000	5008.63200
6.23329	0.00000	5008.63200
6.23713	0.00000	5006.04200
6.24096	0.00000	5006.04200
6.24478	0.00000	5006.04200
6.24861	0.00000	5006.04200
6.25245	0.00000	5006.04200
6.25627	0.00000	5006.04200
6.26011	0.00000	5013.81200
6.26395	0.00000	5013.81200
6.26779	0.00000	5013.81200
6.27162	0.00000	5013.81200
6.27546	0.00000	5013.81200
6.27930	0.00000	5013.81200
6.28312	0.00000	5008.63200
6.28696	0.00000	5008.63200
6.29079	0.00000	5008.63200
6.29465	0.00000	5008.63200
6.29847	0.00000	5008.63200
6.30230	0.00000	5008.63200
6.30613	0.00000	5008.63200
6.30997	0.00000	5018.99100
6.31380	0.00000	5018.99100
6.31762	0.00000	5018.99100
6.32147	0.00000	5018.99100
6.32530	0.00000	5018.99100
6.32914	0.00000	5018.99100
6.33297	0.00000	5016.40200
6.33680	0.00000	5016.40200
6.34062	0.00000	5016.40200
6.34446	0.00000	5016.40200
6.34830	0.00000	5016.40200
6.35213	0.00000	5016.40200
6.35597	0.00000	5008.63200
6.35981	0.00000	5008.63200
6.36365	0.00000	5008.63200
6.36748	0.00000	5008.63200
6.37134	0.00000	5008.63200
6.37519	0.00000	5008.63200
6.37904	0.00000	5008.63200
6.38287	0.00000	5008.63200
6.38672	0.00000	5008.63200
6.39054	0.00000	5008.63200
6.39439	0.00000	5008.63200
6.39823	0.00000	5008.63200
6.40207	0.00000	5008.63200
6.40592	0.00000	5008.63200
6.40976	0.00000	5008.63200
6.41359	0.00000	5008.63200
6.41743	0.00000	5008.63200
6.42126	0.00000	5008.63200
6.42511	0.00000	4981.11200
6.42898	0.00000	4981.11200
6.43279	0.00000	4981.11200
6.43661	0.00000	4981.11200
6.44045	0.00000	4981.11200
6.44428	0.00000	4981.11200
6.44812	0.00000	4981.11200
6.45195	0.00000	5001.71700
6.45579	0.00000	5001.71700
6.45963	0.00000	5001.71700
6.46346	0.00000	5001.71700
6.46730	0.00000	5001.71700
6.47114	0.00000	5001.71700
6.47498	0.00000	5011.22200
6.47881	0.00000	5011.22200
6.48264	0.00000	5011.22200
6.48648	0.00000	5011.22200
6.49031	0.00000	5011.22200
6.49415	0.00000	5011.22200
6.49798	0.00000	5011.22200
6.50181	0.00000	5011.22200
6.50565	0.00000	5011.22200
6.50948	0.00000	5011.22200
6.51331	0.00000	5011.22200
6.51716	0.00000	5011.22200
6.52100	0.00000	5008.63200
6.52483	0.00000	5008.63200
6.52866	0.00000	5008.63200
6.53249	0.00000	5008.63200
6.53632	0.00000	5008.63200
6.54017	0.00000	5008.63200
6.54404	0.00000	5011.22200
6.54790	0.00000	5011.22200
6.55173	0.00000	5011.22200
6.55556	0.00000	5011.22200
6.55940	0.00000	5011.22200
6.56324	0.00000	5011.22200
6.56708	0.00000	5006.04200
6.57091	0.00000	5006.04200
6.57475	0.00000	5006.04200
6.57859	0.00000	5006.04200
6.58242	0.00000	5006.04200
6.58625	0.00000	5006.04200
6.59008	0.00000	4991.41500
6.59392	0.00000	4991.41500
6.59777	0.00000	4991.41500
6.60161	0.00000	4991.41500
6.60547	0.00000	4991.41500
6.60940	0.00000	4991.41500
6.61327	0.00000	4991.41500
6.61713	0.00000	5006.04200
6.62098	0.00000	5006.04200
6.62481	0.00000	5006.04200
6.62862	0.00000	5006.04200
6.63245	0.00000	5006.04200
6.63627	0.00000	5006.04200
6.64010	0.00000	5013.81200
6.64395	0.00000	5013.81200
6.64778	0.00000	5013.81200
6.65162	0.00000	5013.81200
6.65547	0.00000	5013.81200
6.65931	0.00000	5013.81200
6.66315	0.00000	5013.81200
6.66698	0.00000	5013.81200
6.67082	0.00000	5013.81200
6.67465	0.00000	5013.81200
6.67848	0.00000	5013.81200
6.68232	0.00000	5013.81200
6.68616	0.00000	5011.22200
6.69000	0.00000	5011.22200
6.69382	0.00000	5011.22200
6.69765	0.00000	5011.22200
6.70150	0.00000	5011.22200
6.70534	0.00000	5011.22200
6.70918	0.00000	4986.26300
6.71302	0.00000	4986.26300
6.71685	0.00000	4986.26300
6.72069	0.00000	4986.26300
6.72452	0.00000	4986.26300
6.72836	0.00000	4986.26300
6.73218	0.00000	5021.58100
6.73603	0.00000	5021.58100
6.73987	0.00000	5021.58100
6.74371	0.00000	5021.58100
6.74754	0.00000	5021.58100
6.75138	0.00000	5021.58100
6.75522	0.00000	5021.58100
6.75905	0.00000	5004.29200
6.76288	0.00000	5004.29200
6.76674	0.00000	5004.29200
6.77058	0.00000	5004.29200
6.77441	0.00000	5004.29200
6.77824	0.00000	5004.29200
6.78207	0.00000	5013.81200
6.78589	0.00000	5013.81200
6.78972	0.00000	5013.81200
6.79356	0.00000	5013.81200
6.79740	0.00000	5013.81200
6.80123	0.00000	5013.81200
6.80507	0.00000	5018.99100
6.80890	0.00000	5018.99100
6.81273	0.00000	5018.99100
6.81657	0.00000	5018.99100
6.82041	0.00000	5018.99100
6.82425	0.00000	5018.99100
6.82808	0.00000	5013.81200
6.83192	0.00000	5013.81200
6.83576	0.00000	5013.81200
6.83958	0.00000	5013.81200
6.84342	0.00000	5013.81200
6.84726	0.00000	5013.81200
6.85111	0.00000	5011.22200
6.85495	0.00000	5011.22200
6.85878	0.00000	5011.22200
6.86262	0.00000	5011.22200
6.86647	0.00000	5011.22200
6.87032	0.00000	5011.22200
6.87415	0.00000	5016.40200
6.87801	0.00000	5016.40200
6.88184	0.00000	5016.40200
6.88567	0.00000	5016.40200
6.88951	0.00000	5016.40200
6.89335	0.00000	5016.40200
6.89719	0.00000	5016.40200
6.90102	0.00000	5018.99100
6.90485	0.00000	5018.99100
6.90868	0.00000	5018.99100
6.91252	0.00000	5018.99100
6.91636	0.00000	5018.99100
6.92019	0.00000	5018.99100
6.92401	0.00000	5016.40200
6.92784	0.00000	5016.40200
6.93168	0.00000	5016.40200
6.93552	0.00000	5016.40200
6.93936	0.00000	5016.40200
6.94319	0.00000	5016.40200
6.94702	0.00000	4983.68800
6.95084	0.00000	4983.68800
6.95468	0.00000	4983.68800
6.95852	0.00000	4983.68800
6.96235	0.00000	4983.68800
6.96619	0.00000	4983.68800
6.97002	0.00000	5016.40200
6.97386	0.00000	5016.40200
6.97770	0.00000	5016.40200
6.98154	0.00000	5016.40200
6.98536	0.00000	5016.40200
6.98920	0.00000	5016.40200
6.99303	0.00000	4988.83900
6.99687	0.00000	4988.83900
7.00071	0.00000	4988.83900
7.00453	0.00000	4988.83900
7.00836	0.00000	4988.83900
7.01219	0.00000	4988.83900
7.01602	0.00000	5018.99100
7.01988	0.00000	5018.99100
7.02371	0.00000	5018.99100
7.02755	0.00000	5018.99100
7.03139	0.00000	5018.99100
7.03521	0.00000	5018.99100
7.03905	0.00000	5018.99100
7.04287	0.00000	5006.86800
7.04671	0.00000	5006.86800
7.05055	0.00000	5006.86800
7.05439	0.00000	5006.86800
7.05823	0.00000	5006.86800
7.06208	0.00000	5006.86800
7.06592	0.00000	5011.22200
7.06976	0.00000	5011.22200
7.07359	0.00000	5011.22200
7.07744	0.00000	5011.22200
7.08127	0.00000	5011.22200
7.08511	0.00000	5011.22200
7.08894	0.00000	5013.81200
7.09279	0.00000	5013.81200
7.09661	0.00000	5013.81200
7.10045	0.00000	5013.81200
7.10429	0.00000	5013.81200
7.10812	0.00000	5013.81200
7.11196	0.00000	5018.99100
7.11580	0.00000	5018.99100
7.11963	0.00000	5018.99100
7.12346	0.00000	5018.99100
7.12731	0.00000	5018.99100
7.13114	0.00000	5018.99100
7.13498	0.00000	5016.40200
7.13881	0.00000	5016.40200
7.14265	0.00000	5016.40200
7.14648	0.00000	5016.40200
7.15030	0.00000	5016.40200
7.15414	0.00000	5016.40200
7.15798	0.00000	5013.81200
7.16183	0.00000	5013.81200
7.16567	0.00000	5013.81200
7.16950	0.00000	5013.81200
7.17334	0.00000	5013.81200
7.17717	0.00000	5013.81200
7.18100	0.00000	5013.81200
7.18485	0.00000	5013.81200
7.18868	0.00000	5013.81200
7.19252	0.00000	5013.81200
7.19635	0.00000	5013.81200
7.20019	0.00000	5013.81200
7.20403	0.00000	5013.81200
7.20785	0.00000	5026.76100
7.21168	0.00000	5026.76100
7.21551	0.00000	5026.76100
7.21934	0.00000	5026.76100
7.22317	0.00000	5026.76100
7.22701	0.00000	5026.76100
7.23084	0.00000	5016.40200
7.23467	0.00000	5016.40200
7.23850	0.00000	5016.40200
7.24233	0.00000	5016.40200
7.24617	0.00000	5016.40200
7.25000	0.00000	5016.40200
7.25384	0.00000	4993.99000
7.25768	0.00000	4993.99000
7.26150	0.00000	4993.99000
7.26534	0.00000	4993.99000
7.26917	0.00000	4993.99000
7.27303	0.00000	4993.99000
7.27686	0.00000	5018.99100
7.28069	0.00000	5018.99100
7.28453	0.00000	5018.99100
7.28836	0.00000	5018.99100
7.29219	0.00000	5018.99100
7.29602	0.00000	5018.99100
7.29985	0.00000	4991.41500
7.30370	0.00000	4991.41500
7.30754	0.00000	4991.41500
7.31139	0.00000	4991.41500
7.31522	0.00000	4991.41500
7.31906	0.00000	4991.41500
7.32290	0.00000	4996.56600
7.32673	0.00000	4996.56600
7.33057	0.00000	4996.56600
7.33440	0.00000	4996.56600
7.33825	0.00000	4996.56600
7.34208	0.00000	4996.56600
7.34592	0.00000	4996.56600
7.34975	0.00000	4996.56600
7.35359	0.00000	4996.56600
7.35742	0.00000	4996.56600
7.36126	0.00000	4996.56600
7.36510	0.00000	4996.56600
7.36893	0.00000	4996.56600
7.37276	0.00000	5024.17100
7.37659	0.00000	5024.17100
7.38043	0.00000	5024.17100
7.38427	0.00000	5024.17100
7.38810	0.00000	5024.17100
7.39194	0.00000	5024.17100
7.39577	0.00000	5021.58100
7.39959	0.00000	5021.58100
7.40343	0.00000	5021.58100
7.40727	0.00000	5021.58100
7.41110	0.00000	5021.58100
7.41494	0.00000	5021.58100
7.41877	0.00000	4991.41500
7.42261	0.00000	4991.41500
7.42644	0.00000	4991.41500
7.43028	0.00000	4991.41500
7.43411	0.00000	4991.41500
7.43795	0.00000	4991.41500
7.44179	0.00000	5021.58100
7.44563	0.00000	5021.58100
7.44946	0.00000	5021.58100
7.45329	0.00000	5021.58100
7.45713	0.00000	5021.58100
7.46096	0.00000	5021.58100
7.46481	0.00000	5021.58100
7.46861	0.00000	5006.86800
7.47245	0.00000	5006.86800
7.47629	0.00000	5006.86800
7.48012	0.00000	5006.86800
7.48395	0.00000	5006.86800
7.48779	0.00000	5006.86800
7.49162	0.00000	5004.29200
7.49545	0.00000	5004.29200
7.49929	0.00000	5004.29200
7.50314	0.00000	5004.29200
7.50699	0.00000	5004.29200
7.51081	0.00000	5004.29200
7.51464	0.00000	4999.14100
7.51847	0.00000	4999.14100
7.52232	0.00000	4999.14100
7.52616	0.00000	4999.14100
7.53000	0.00000	4999.14100
7.53383	0.00000	4999.14100
7.53767	0.00000	5009.44400
7.54150	0.00000	5009.44400
7.54537	0.00000	5009.44400
7.54922	0.00000	5009.44400
7.55305	0.00000	5009.44400
7.55690	0.00000	5009.44400
7.56074	0.00000	5031.94100
7.56456	0.00000	5031.94100
7.56841	0.00000	5031.94100
7.57224	0.00000	5031.94100
7.57607	0.00000	5031.94100
7.57992	0.00000	5031.94100
7.58375	0.00000	5034.53000
7.58762	0.00000	5034.53000
7.59144	0.00000	5034.53000
7.59528	0.00000	5034.53000
7.59911	0.00000	5034.53000
7.60295	0.00000	5034.53000
7.60681	0.00000	5034.53000
7.61066	0.00000	5022.32100
7.61451	0.00000	5022.32100
7.61835	0.00000	5022.32100
7.62221	0.00000	5022.32100
7.62605	0.00000	5022.32100
7.62989	0.00000	5022.32100
7.63372	0.00000	5004.29200
7.63755	0.00000	5004.29200
7.64139	0.00000	5004.29200
7.64522	0.00000	5004.29200
7.64906	0.00000	5004.29200
7.65289	0.00000	5004.29200
7.65672	0.00000	5006.86800
7.66057	0.00000	5006.86800
7.66441	0.00000	5006.86800
7.66825	0.00000	5006.86800
7.67209	0.00000	5006.86800
7.67592	0.00000	5006.86800
7.67977	0.00000	5014.59400
7.68360	0.00000	5014.59400
7.68744	0.00000	5014.59400
7.69126	0.00000	5014.59400
7.69509	0.00000	5014.59400
7.69892	0.00000	5014.59400
7.70276	0.00000	5006.86800
7.70660	0.00000	5006.86800
7.71044	0.00000	5006.86800
7.71427	0.00000	5006.86800
7.71811	0.00000	5006.86800
7.72193	0.00000	5006.86800
7.72577	0.00000	5006.86800
7.72959	0.00000	5006.86800
7.73343	0.00000	5006.86800
7.73728	0.00000	5006.86800
7.74113	0.00000	5006.86800
7.74496	0.00000	5006.86800
7.74879	0.00000	5006.86800
7.75262	0.00000	5014.59400
7.75645	0.00000	5014.59400
7.76030	0.00000	5014.59400
7.76413	0.00000	5014.59400
7.76796	0.00000	5014.59400
7.77180	0.00000	5014.59400
7.77564	0.00000	5034.53000
7.77947	0.00000	5034.53000
7.78330	0.00000	5034.53000
7.78715	0.00000	5034.53000
7.79098	0.00000	5034.53000
7.79482	0.00000	5034.53000
7.79866	0.00000	5034.53000
7.80248	0.00000	5034.53000
7.80631	0.00000	5034.53000
7.81015	0.00000	5034.53000
7.81399	0.00000	5034.53000
7.81784	0.00000	5034.53000
7.82167	0.00000	5044.88900
7.82550	0.00000	5044.88900
7.82934	0.00000	5044.88900
7.83319	0.00000	5044.88900
7.83702	0.00000	5044.88900
7.84086	0.00000	5044.88900
7.84469	0.00000	5039.71000
7.84852	0.00000	5039.71000
7.85236	0.00000	5039.71000
7.85619	0.00000	5039.71000
7.86002	0.00000	5039.71000
7.86386	0.00000	5039.71000
7.86771	0.00000	5042.30000
7.87154	0.00000	5042.30000
7.87537	0.00000	5042.30000
7.87920	0.00000	5042.30000
7.88303	0.00000	5042.30000
7.88688	0.00000	5042.30000
7.89071	0.00000	5042.30000
7.89455	0.00000	5014.59400
7.89839	0.00000	5014.59400
7.90222	0.00000	5014.59400
7.90605	0.00000	5014.59400
7.90988	0.00000	5014.59400
7.91371	0.00000	5014.59400
7.91755	0.00000	5012.01900
7.92138	0.00000	5012.01900
7.92524	0.00000	5012.01900
7.92907	0.00000	5012.01900
7.93289	0.00000	5012.01900
7.93672	0.00000	5012.01900
7.94056	0.00000	5012.01900
7.94440	0.00000	5012.01900
7.94823	0.00000	5012.01900
7.95207	0.00000	5012.01900
7.95590	0.00000	5012.01900
7.95974	0.00000	5012.01900
7.96357	0.00000	5039.71000
7.96741	0.00000	5039.71000
7.97125	0.00000	5039.71000
7.97509	0.00000	5039.71000
7.97892	0.00000	5039.71000
7.98275	0.00000	5039.71000
7.98658	0.00000	5009.44400
7.99045	0.00000	5009.44400
7.99429	0.00000	5009.44400
7.99813	0.00000	5009.44400
8.00196	0.00000	5009.44400
8.00579	0.00000	5009.44400
8.00962	0.00000	5009.44400
8.01345	0.00000	5024.89700
8.01728	0.00000	5024.89700
8.02111	0.00000	5024.89700
8.02495	0.00000	5024.89700
8.02880	0.00000	5024.89700
8.03262	0.00000	5024.89700
8.03645	0.00000	5012.01900
8.04028	0.00000	5012.01900
8.04411	0.00000	5012.01900
8.04795	0.00000	5012.01900
8.05179	0.00000	5012.01900
8.05562	0.00000	5012.01900
8.05945	0.00000	5012.01900
8.06329	0.00000	5012.01900
8.06713	0.00000	5012.01900
8.07096	0.00000	5012.01900
8.07480	0.00000	5012.01900
8.07864	0.00000	5012.01900
8.08247	0.00000	5019.74500
8.08630	0.00000	5019.74500
8.09013	0.00000	5019.74500
8.09396	0.00000	5019.74500
8.09780	0.00000	5019.74500
8.10163	0.00000	5019.74500
8.10547	0.00000	5037.12000
8.10933	0.00000	5037.12000
8.11316	0.00000	5037.12000
8.11699	0.00000	5037.12000
8.12083	0.00000	5037.12000
8.12466	0.00000	5037.12000
8.12850	0.00000	5006.86800
8.13233	0.00000	5006.86800
8.13616	0.00000	5006.86800
8.13999	0.00000	5006.86800
8.14382	0.00000	5006.86800
8.14766	0.00000	5006.86800
8.15149	0.00000	5006.86800
8.15533	0.00000	5022.32100
8.15917	0.00000	5022.32100
8.16301	0.00000	5022.32100
8.16685	0.00000	5022.32100
8.17068	0.00000	5022.32100
8.17452	0.00000	5022.32100
8.17835	0.00000	5014.59400
8.18220	0.00000	5014.59400
8.18603	0.00000	5014.59400
8.18987	0.00000	5014.59400
8.19371	0.00000	5014.59400
8.19754	0.00000	5014.59400
8.20137	0.00000	5009.44400
8.20520	0.00000	5009.44400
8.20904	0.00000	5009.44400
8.21287	0.00000	5009.44400
8.21671	0.00000	5009.44400
8.22053	0.00000	5009.44400
8.22438	0.00000	5022.32100
8.22821	0.00000	5022.32100
8.23204	0.00000	5022.32100
8.23588	0.00000	5022.32100
8.23971	0.00000	5022.32100
8.24355	0.00000	5022.32100
8.24738	0.00000	5009.44400
8.25122	0.00000	5009.44400
8.25506	0.00000	5009.44400
8.25891	0.00000	5009.44400
8.26275	0.00000	5009.44400
8.26658	0.00000	5009.44400
8.27042	0.00000	5009.44400
8.27425	0.00000	4994.87700
8.27808	0.00000	4994.87700
8.28192	0.00000	4994.87700
8.28576	0.00000	4994.87700
8.28960	0.00000	4994.87700
8.29344	0.00000	4994.87700
8.29727	0.00000	5012.01900
8.30111	0.00000	5012.01900
8.30494	0.00000	5012.01900
8.30878	0.00000	5012.01900
8.31261	0.00000	5012.01900
8.31645	0.00000	5012.01900
8.32029	0.00000	5012.01900
8.32412	0.00000	5012.01900
8.32795	0.00000	5012.01900
8.33178	0.00000	5012.01900
8.33562	0.00000	5012.01900
8.33946	0.00000	5012.01900
8.34330	0.00000	5012.01900
8.34714	0.00000	5012.01900
8.35096	0.00000	5012.01900
8.35479	0.00000	5012.01900
8.35863	0.00000	5012.01900
8.36247	0.00000	5012.01900
8.36631	0.00000	5014.59400
8.37015	0.00000	5014.59400
8.37398	0.00000	5014.59400
8.37781	0.00000	5014.59400
8.38164	0.00000	5014.59400
8.38547	0.00000	5014.59400
8.38932	0.00000	5012.01900
8.39317	0.00000	5012.01900
8.39701	0.00000	5012.01900
8.40084	0.00000	5012.01900
8.40467	0.00000	5012.01900
8.40852	0.00000	5012.01900
8.41236	0.00000	5012.01900
8.41619	0.00000	5024.89700
8.42003	0.00000	5024.89700
8.42388	0.00000	5024.89700
8.42771	0.00000	5024.89700
8.43155	0.00000	5024.89700
8.43539	0.00000	5024.89700
8.43923	0.00000	5014.59400
8.44307	0.00000	5014.59400
8.44691	0.00000	5014.59400
8.45074	0.00000	5014.59400
8.45457	0.00000	5014.59400
8.45841	0.00000	5014.59400
8.46224	0.00000	5006.86800
8.46608	0.00000	5006.86800
8.46992	0.00000	5006.86800
8.47377	0.00000	5006.86800
8.47759	0.00000	5006.86800
8.48144	0.00000	5006.86800
8.48527	0.00000	5009.44400
8.48910	0.00000	5009.44400
8.49293	0.00000	5009.44400
8.49678	0.00000	5009.44400
8.50062	0.00000	5009.44400
8.50445	0.00000	5009.44400
8.50827	0.00000	5006.86800
8.51213	0.00000	5006.86800
8.51596	0.00000	5006.86800
8.51980	0.00000	5006.86800
8.52363	0.00000	5006.86800
8.52747	0.00000	5006.86800
8.53131	0.00000	5012.01900
8.53514	0.00000	5012.01900
8.53960	0.00000	5012.01900
8.54351	0.00000	5012.01900
8.54737	0.00000	5012.01900
8.55125	0.00000	5012.01900
8.55509	0.00000	5049.47900
8.55896	0.00000	5049.47900
8.56281	0.00000	5049.47900
8.56664	0.00000	5049.47900
8.57049	0.00000	5049.47900
8.57433	0.00000	5049.47900
8.57817	0.00000	5049.47900
8.58200	0.00000	5024.89700
8.58583	0.00000	5024.89700
8.58966	0.00000	5024.89700
8.59350	0.00000	5024.89700
8.59735	0.00000	5024.89700
8.60118	0.00000	5024.89700
8.60503	0.00000	5037.12000
8.60887	0.00000	5037.12000
8.61270	0.00000	5037.12000
8.61653	0.00000	5037.12000
8.62038	0.00000	5037.12000
8.62421	0.00000	5037.12000
8.62805	0.00000	5037.12000
8.63188	0.00000	5037.12000
8.63572	0.00000	5037.12000
8.63955	0.00000	5037.12000
8.64339	0.00000	5037.12000
8.64723	0.00000	5037.12000
8.65106	0.00000	5042.30000
8.65490	0.00000	5042.30000
8.65874	0.00000	5042.30000
8.66259	0.00000	5042.30000
8.66642	0.00000	5042.30000
8.67026	0.00000	5042.30000
8.67410	0.00000	5042.30000
8.67795	0.00000	5042.30000
8.68180	0.00000	5042.30000
8.68562	0.00000	5042.30000
8.68945	0.00000	5042.30000
8.69329	0.00000	5042.30000
8.69712	0.00000	5017.17000
8.70094	0.00000	5017.17000
8.70478	0.00000	5017.17000
8.70861	0.00000	5017.17000
8.71245	0.00000	5017.17000
8.71628	0.00000	5017.17000
8.72011	0.00000	5017.17000
8.72395	0.00000	5014.59400
8.72780	0.00000	5014.59400
8.73163	0.00000	5014.59400
8.73546	0.00000	5014.59400
8.73930	0.00000	5014.59400
8.74312	0.00000	5014.59400
8.74695	0.00000	5012.01900
8.75079	0.00000	5012.01900
8.75463	0.00000	5012.01900
8.75846	0.00000	5012.01900
8.76230	0.00000	5012.01900
8.76614	0.00000	5012.01900
8.76997	0.00000	5042.30000
8.77380	0.00000	5042.30000
8.77764	0.00000	5042.30000
8.78149	0.00000	5042.30000
8.78533	0.00000	5042.30000
8.78918	0.00000	5042.30000
8.79301	0.00000	5039.71000
8.79686	0.00000	5039.71000
8.80069	0.00000	5039.71000
8.80453	0.00000	5039.71000
8.80836	0.00000	5039.71000
8.81220	0.00000	5039.71000
8.81604	0.00000	5034.53000
8.81988	0.00000	5034.53000
8.82372	0.00000	5034.53000
8.82757	0.00000	5034.53000
8.83141	0.00000	5034.53000
8.83524	0.00000	5034.53000
8.83908	0.00000	5034.53000
8.84293	0.00000	5019.74500
8.84676	0.00000	5019.74500
8.85059	0.00000	5019.74500
8.85443	0.00000	5019.74500
8.85828	0.00000	5019.74500
8.86212	0.00000	5019.74500
8.86595	0.00000	5009.44400
8.86979	0.00000	5009.44400
8.87361	0.00000	5009.44400
8.87745	0.00000	5009.44400
8.88129	0.00000	5009.44400
8.88512	0.00000	5009.44400
8.88895	0.00000	5014.59400
8.89279	0.00000	5014.59400
8.89661	0.00000	5014.59400
8.90045	0.00000	5014.59400
8.90428	0.00000	5014.59400
8.90812	0.00000	5014.59400
8.91195	0.00000	5012.01900
8.91579	0.00000	5012.01900
8.91964	0.00000	5012.01900
8.92348	0.00000	5012.01900
8.92732	0.00000	5012.01900
8.93116	0.00000	5012.01900
8.93500	0.00000	5001.71700
8.93884	0.00000	5001.71700
8.94268	0.00000	5001.71700
8.94651	0.00000	5001.71700
8.95036	0.00000	5001.71700
8.95419	0.00000	5001.71700
8.95803	0.00000	5006.86800
8.96186	0.00000	5006.86800
8.96570	0.00000	5006.86800
8.96953	0.00000	5006.86800
8.97336	0.00000	5006.86800
8.97720	0.00000	5006.86800
8.98104	0.00000	5006.86800
8.98488	0.00000	5002.56100
8.98872	0.00000	5002.56100
8.99256	0.00000	5002.56100
8.99640	0.00000	5002.56100
9.00024	0.00000	5002.56100
9.00408	0.00000	5002.56100
9.00792	0.00000	5017.17000
9.01176	0.00000	5017.17000
9.01560	0.00000	5017.17000
9.01943	0.00000	5017.17000
9.02326	0.00000	5017.17000
9.02709	0.00000	5017.17000
9.03092	0.00000	5009.44400
9.03475	0.00000	5009.44400
9.03859	0.00000	5009.44400
9.04242	0.00000	5009.44400
9.04626	0.00000	5009.44400
9.05010	0.00000	5009.44400
9.05393	0.00000	5009.44400
9.05776	0.00000	5009.44400
9.06161	0.00000	5009.44400
9.06545	0.00000	5009.44400
9.06930	0.00000	5009.44400
9.07314	0.00000	5009.44400
9.07698	0.00000	5014.59400
9.08083	0.00000	5014.59400
9.08461	0.00000	5014.59400
9.08845	0.00000	5014.59400
9.09228	0.00000	5014.59400
9.09611	0.00000	5014.59400
9.09997	0.00000	5019.74500
9.10379	0.00000	5019.74500
9.10762	0.00000	5019.74500
9.11145	0.00000	5019.74500
9.11529	0.00000	5019.74500
9.11913	0.00000	5019.74500
9.12296	0.00000	5019.74500
9.12679	0.00000	5037.12000
9.13062	0.00000	5037.12000
9.13445	0.00000	5037.12000
9.13829	0.00000	5037.12000
9.14213	0.00000	5037.12000
9.14598	0.00000	5037.12000
9.14982	0.00000	5012.01900
9.15365	0.00000	5012.01900
9.15748	0.00000	5012.01900
9.16131	0.00000	5012.01900
9.16515	0.00000	5012.01900
9.16898	0.00000	5012.01900
9.17279	0.00000	5012.01900
9.17661	0.00000	5012.01900
9.18044	0.00000	5012.01900
9.18427	0.00000	5012.01900
9.18811	0.00000	5012.01900
9.19195	0.00000	5012.01900
9.19579	0.00000	5009.44400
9.19962	0.00000	5009.44400
9.20345	0.00000	5009.44400
9.20729	0.00000	5009.44400
9.21112	0.00000	5009.44400
9.21495	0.00000	5009.44400
9.21879	0.00000	5019.74500
9.22262	0.00000	5019.74500
9.22646	0.00000	5019.74500
9.23030	0.00000	5019.74500
9.23414	0.00000	5019.74500
9.23797	0.00000	5019.74500
9.24181	0.00000	5019.74500
9.24564	0.00000	5024.89700
9.24950	0.00000	5024.89700
9.25334	0.00000	5024.89700
9.25718	0.00000	5024.89700
9.26102	0.00000	5024.89700
9.26486	0.00000	5024.89700
9.26869	0.00000	5034.53000
9.27254	0.00000	5034.53000
9.27638	0.00000	5034.53000
9.28022	0.00000	5034.53000
9.28406	0.00000	5034.53000
9.28789	0.00000	5034.53000
9.29172	0.00000	5034.53000
9.29557	0.00000	5034.53000
9.29942	0.00000	5034.53000
9.30326	0.00000	5034.53000
9.30710	0.00000	5034.53000
9.31094	0.00000	5034.53000
9.31477	0.00000	5039.71000
9.31860	0.00000	5039.71000
9.32243	0.00000	5039.71000
9.32628	0.00000	5039.71000
9.33012	0.00000	5039.71000
9.33395	0.00000	5039.71000
9.33779	0.00000	5039.71000
9.34164	0.00000	5039.71000
9.34547	0.00000	5039.71000
9.34930	0.00000	5039.71000
9.35314	0.00000	5039.71000
9.35698	0.00000	5039.71000
9.36081	0.00000	5039.71000
9.36461	0.00000	5039.71000
9.36845	0.00000	5039.71000
9.37228	0.00000	5039.71000
9.37612	0.00000	5039.71000
9.37996	0.00000	5039.71000
9.38380	0.00000	5039.71000
9.38764	0.00000	5017.17000
9.39147	0.00000	5017.17000
9.39530	0.00000	5017.17000
9.39914	0.00000	5017.17000
9.40299	0.00000	5017.17000
9.40683	0.00000	5017.17000
9.41067	0.00000	5012.01900
9.41450	0.00000	5012.01900
9.41833	0.00000	5012.01900
9.42216	0.00000	5012.01900
9.42599	0.00000	5012.01900
9.42982	0.00000	5012.01900
9.43366	0.00000	5004.29200
9.43750	0.00000	5004.29200
9.44133	0.00000	5004.29200
9.44516	0.00000	5004.29200
9.44898	0.00000	5004.29200
9.45279	0.00000	5004.29200
9.45661	0.00000	5014.59400
9.46045	0.00000	5014.59400
9.46429	0.00000	5014.59400
9.46813	0.00000	5014.59400
9.47195	0.00000	5014.59400
9.47579	0.00000	5014.59400
9.47963	0.00000	5014.59400
9.48348	0.00000	5014.59400
9.48732	0.00000	5014.59400
9.49117	0.00000	5014.59400
9.49500	0.00000	5014.59400
9.49883	0.00000	5014.59400
9.50266	0.00000	5014.59400
9.50649	0.00000	5024.89700
9.51032	0.00000	5024.89700
9.51415	0.00000	5024.89700
9.51799	0.00000	5024.89700
9.52182	0.00000	5024.89700
9.52565	0.00000	5024.89700
9.52948	0.00000	5014.59400
9.53332	0.00000	5014.59400
9.53715	0.00000	5014.59400
9.54100	0.00000	5014.59400
9.54487	0.00000	5014.59400
9.54871	0.00000	5014.59400
9.55255	0.00000	5009.44400
9.55639	0.00000	5009.44400
9.56024	0.00000	5009.44400
9.56407	0.00000	5009.44400
9.56791	0.00000	5009.44400
9.57174	0.00000	5009.44400
9.57557	0.00000	5017.17000
9.57942	0.00000	5017.17000
9.58325	0.00000	5017.17000
9.58709	0.00000	5017.17000
9.59093	0.00000	5017.17000
9.59476	0.00000	5017.17000
9.59860	0.00000	5042.30000
9.60243	0.00000	5042.30000
9.60627	0.00000	5042.30000
9.61010	0.00000	5042.30000
9.61394	0.00000	5042.30000
9.61777	0.00000	5042.30000
9.62161	0.00000	5039.71000
9.62544	0.00000	5039.71000
9.62927	0.00000	5039.71000
9.63309	0.00000	5039.71000
9.63693	0.00000	5039.71000
9.64076	0.00000	5039.71000
9.64460	0.00000	5039.71000
9.64845	0.00000	5032.62300
9.65227	0.00000	5032.62300
9.65610	0.00000	5032.62300
9.65994	0.00000	5032.62300
9.66377	0.00000	5032.62300
9.66761	0.00000	5032.62300
9.67145	0.00000	5044.88900
9.67530	0.00000	5044.88900
9.67913	0.00000	5044.88900
9.68296	0.00000	5044.88900
9.68679	0.00000	5044.88900
9.69063	0.00000	5044.88900
9.69446	0.00000	5022.32100
9.69829	0.00000	5022.32100
9.70213	0.00000	5022.32100
9.70596	0.00000	5022.32100
9.70978	0.00000	5022.32100
9.71362	0.00000	5022.32100
9.71745	0.00000	5024.89700
9.72128	0.00000	5024.89700
9.72511	0.00000	5024.89700
9.72893	0.00000	5024.89700
9.73276	0.00000	5024.89700
9.73659	0.00000	5024.89700
9.74042	0.00000	5014.59400
9.74426	0.00000	5014.59400
9.74810	0.00000	5014.59400
9.75193	0.00000	5014.59400
9.75576	0.00000	5014.59400
9.75959	0.00000	5014.59400
9.76341	0.00000	5014.59400
9.76724	0.00000	5027.47200
9.77107	0.00000	5027.47200
9.77490	0.00000	5027.47200
9.77873	0.00000	5027.47200
9.78256	0.00000	5027.47200
9.78639	0.00000	5027.47200
9.79022	0.00000	5019.74500
9.79405	0.00000	5019.74500
9.79787	0.00000	5019.74500
9.80170	0.00000	5019.74500
9.80552	0.00000	5019.74500
9.80935	0.00000	5019.74500
9.81317	0.00000	5019.74500
9.81699	0.00000	5019.74500
9.82082	0.00000	5019.74500
9.82466	0.00000	5019.74500
9.82850	0.00000	5019.74500
9.83232	0.00000	5019.74500
9.83615	0.00000	5050.06900
9.83997	0.00000	5050.06900
9.84380	0.00000	5050.06900
9.84765	0.00000	5050.06900
9.85147	0.00000	5050.06900
9.85531	0.00000	5050.06900
9.85913	0.00000	5019.74500
9.86296	0.00000	5019.74500
9.86680	0.00000	5019.74500
9.87063	0.00000	5019.74500
9.87446	0.00000	5019.74500
9.87828	0.00000	5019.74500
9.88212	0.00000	5019.74500
9.88595	0.00000	5015.36800
9.88979	0.00000	5015.36800
9.89363	0.00000	5015.36800
9.89747	0.00000	5015.36800
9.90130	0.00000	5015.36800
9.90514	0.00000	5015.36800
9.90899	0.00000	5017.17000
9.91279	0.00000	5017.17000
9.91661	0.00000	5017.17000
9.92045	0.00000	5017.17000
9.92429	0.00000	5017.17000
9.92813	0.00000	5017.17000
9.93196	0.00000	5022.32100
9.93580	0.00000	5022.32100
9.93963	0.00000	5022.32100
9.94346	0.00000	5022.32100
9.94729	0.00000	5022.32100
9.95112	0.00000	5022.32100
9.95497	0.00000	5024.89700
9.95880	0.00000	5024.89700
9.96263	0.00000	5024.89700
9.96648	0.00000	5024.89700
9.97030	0.00000	5024.89700
9.97414	0.00000	5024.89700
9.97797	0.00000	5024.89700
9.98181	0.00000	5024.89700
9.98565	0.00000	5024.89700
9.98949	0.00000	5024.89700
9.99333	0.00000	5024.89700
9.99716	0.00000	5024.89700
