Time (s)   Thrust (N)   RPM
0.00029	0.00000	5478.30100
0.00418	0.00000	5478.44300
0.00806	0.00000	5478.44300
0.01190	0.00000	5478.44300
0.01574	0.00000	5478.44300
0.01958	0.00000	5478.44300
0.02347	0.00000	5478.44300
0.02734	0.00000	5478.44300
0.03118	0.00000	5401.39700
0.03502	0.00000	5401.39700
0.03885	0.00000	5401.39700
0.04270	0.00000	5401.39700
0.04653	0.00000	5401.39700
0.05036	0.00000	5401.39700
0.05419	0.00000	5112.02800
0.05803	0.00000	5112.02800
0.06185	0.00000	5112.02800
0.06569	0.00000	5112.02800
0.06952	0.00000	5112.02800
0.07335	0.00000	5112.02800
0.07719	0.00000	4861.60700
0.08101	0.00000	4861.60700
0.08485	0.00000	4861.60700
0.08868	0.00000	4861.60700
0.09251	0.00000	4861.60700
0.09634	0.00000	4861.60700
0.10017	0.00000	4667.91000
0.10400	0.00000	4667.91000
0.10782	0.00000	4667.91000
0.11166	0.00000	4667.91000
0.11548	0.00000	4667.91000
0.11931	0.00000	4524.45600
0.12312	0.00000	4524.45600
0.12696	0.00000	4524.45600
0.13078	0.00000	4524.45600
0.13461	0.00000	4524.45600
0.13843	0.00000	4383.00000
0.14224	0.00000	4383.00000
0.14606	0.00000	4383.00000
0.14988	0.00000	4383.00000
0.15371	0.00000	4383.00000
0.15753	0.00000	4383.00000
0.16138	0.00000	4269.98400
0.16521	0.00000	4269.98400
0.16905	0.00000	4269.98400
0.17288	0.00000	4269.98400
0.17671	0.00000	4269.98400
0.18055	0.00000	4172.57900
0.18437	0.00000	4172.57900
0.18820	0.00000	4172.57900
0.19203	0.00000	4172.57900
0.19586	0.00000	4172.57900
0.19968	0.00000	4093.80300
0.20352	0.00000	4093.80300
0.20735	0.00000	4093.80300
0.21118	0.00000	4093.80300
0.21501	0.00000	4093.80300
0.21884	0.00000	4020.61800
0.22266	0.00000	4020.61800
0.22649	0.00000	4020.61800
0.23031	0.00000	4020.61800
0.23413	0.00000	4020.61800
0.23796	0.00000	3958.69500
0.24179	0.00000	3958.69500
0.24561	0.00000	3958.69500
0.24945	0.00000	3958.69500
0.25327	0.00000	3958.69500
0.25711	0.00000	3904.87700
0.26093	0.00000	3904.87700
0.26476	0.00000	3904.87700
0.26859	0.00000	3904.87700
0.27242	0.00000	3856.95100
0.27624	0.00000	3856.95100
0.28008	0.00000	3856.95100
0.28390	0.00000	3856.95100
0.28772	0.00000	3856.95100
0.29154	0.00000	3813.84400
0.29538	0.00000	3813.84400
0.29922	0.00000	3813.84400
0.30304	0.00000	3813.84400
0.30687	0.00000	3813.84400
0.31069	0.00000	3780.35000
0.31451	0.00000	3780.35000
0.31833	0.00000	3780.35000
0.32216	0.00000	3780.35000
0.32598	0.00000	3780.35000
0.32980	0.00000	3746.60300
0.33362	0.00000	3746.60300
0.33744	0.00000	3746.60300
0.34127	0.00000	3746.60300
0.34510	0.00000	3715.65900
0.34892	0.00000	3715.65900
0.35275	0.00000	3715.65900
0.35659	0.00000	3715.65900
0.36042	0.00000	3715.65900
0.36425	0.00000	3688.18600
0.36807	0.00000	3688.18600
0.37190	0.00000	3688.18600
0.37573	0.00000	3688.18600
0.37956	0.00000	3688.18600
0.38338	0.00000	3663.99000
0.38722	0.00000	3663.99000
0.39104	0.00000	3663.99000
0.39486	0.00000	3663.99000
0.39869	0.00000	3649.30500
0.40253	0.00000	3649.30500
0.40635	0.00000	3649.30500
0.41017	0.00000	3649.30500
0.41399	0.00000	3649.30500
0.41782	0.00000	3646.02600
0.42165	0.00000	3646.02600
0.42548	0.00000	3646.02600
0.42931	0.00000	3646.02600
0.43314	0.00000	3646.02600
0.43698	0.00000	3621.28900
0.44081	0.00000	3621.28900
0.44465	0.00000	3621.28900
0.44847	0.00000	3621.28900
0.45231	0.00000	3606.57600
0.45613	0.00000	3606.57600
0.45996	0.00000	3606.57600
0.46378	0.00000	3606.57600
0.46762	0.00000	3606.57600
0.47140	0.00000	3600.13900
0.47523	0.00000	3600.13900
0.47905	0.00000	3600.13900
0.48288	0.00000	3600.13900
0.48671	0.00000	3591.99400
0.49054	0.00000	3591.99400
0.49437	0.00000	3591.99400
0.49821	0.00000	3591.99400
0.50205	0.00000	3591.99400
0.50589	0.00000	3592.58400
0.50973	0.00000	3592.58400
0.51355	0.00000	3592.58400
0.51738	0.00000	3592.58400
0.52121	0.00000	3592.58400
0.52503	0.00000	3574.43800
0.52885	0.00000	3574.43800
0.53268	0.00000	3574.43800
0.53650	0.00000	3574.43800
0.54033	0.00000	3570.25300
0.54416	0.00000	3570.25300
0.54799	0.00000	3570.25300
0.55181	0.00000	3570.25300
0.55564	0.00000	3570.25300
0.55947	0.00000	3564.25200
0.56330	0.00000	3564.25200
0.56713	0.00000	3564.25200
0.57096	0.00000	3564.25200
0.57479	0.00000	3559.32200
0.57861	0.00000	3559.32200
0.58246	0.00000	3559.32200
0.58629	0.00000	3559.32200
0.59012	0.00000	3559.32200
0.59394	0.00000	3553.37000
0.59777	0.00000	3553.37000
0.60160	0.00000	3553.37000
0.60543	0.00000	3553.37000
0.60926	0.00000	3551.88700
0.61310	0.00000	3551.88700
0.61693	0.00000	3551.88700
0.62075	0.00000	3551.88700
0.62459	0.00000	3551.88700
0.62842	0.00000	3549.48400
0.63224	0.00000	3549.48400
0.63606	0.00000	3549.48400
0.63988	0.00000	3549.48400
0.64370	0.00000	3537.73500
0.64752	0.00000	3537.73500
0.65136	0.00000	3537.73500
0.65519	0.00000	3537.73500
0.65903	0.00000	3537.73500
0.66286	0.00000	3545.19700
0.66668	0.00000	3545.19700
0.67050	0.00000	3545.19700
0.67434	0.00000	3545.19700
0.67816	0.00000	3545.19700
0.68198	0.00000	3545.19700
0.68582	0.00000	3545.19700
0.68965	0.00000	3545.19700
0.69348	0.00000	3545.19700
0.69730	0.00000	3537.33400
0.70113	0.00000	3537.33400
0.70496	0.00000	3537.33400
0.70879	0.00000	3537.33400
0.71261	0.00000	3537.33400
0.71644	0.00000	3538.93000
0.72028	0.00000	3538.93000
0.72412	0.00000	3538.93000
0.72795	0.00000	3538.93000
0.73177	0.00000	3537.33400
0.73559	0.00000	3537.33400
0.73940	0.00000	3537.33400
0.74323	0.00000	3537.33400
0.74705	0.00000	3537.33400
0.75088	0.00000	3535.00900
0.75470	0.00000	3535.00900
0.75853	0.00000	3535.00900
0.76235	0.00000	3535.00900
0.76617	0.00000	3529.82900
0.77000	0.00000	3529.82900
0.77383	0.00000	3529.82900
0.77767	0.00000	3529.82900
0.78150	0.00000	3529.82900
0.78534	0.00000	3534.60400
0.78916	0.00000	3534.60400
0.79299	0.00000	3534.60400
0.79682	0.00000	3534.60400
0.80064	0.00000	3533.38000
0.80448	0.00000	3533.38000
0.80831	0.00000	3533.38000
0.81213	0.00000	3533.38000
0.81596	0.00000	3533.38000
0.81979	0.00000	3527.54200
0.82362	0.00000	3527.54200
0.82740	0.00000	3527.54200
0.83123	0.00000	3527.54200
0.83506	0.00000	3529.41100
0.83888	0.00000	3529.41100
0.84271	0.00000	3529.41100
0.84652	0.00000	3529.41100
0.85034	0.00000	3529.41100
0.85417	0.00000	3530.24500
0.85801	0.00000	3530.24500
0.86183	0.00000	3530.24500
0.86566	0.00000	3530.24500
0.86948	0.00000	3526.27800
0.87331	0.00000	3526.27800
0.87714	0.00000	3526.27800
0.88097	0.00000	3526.27800
0.88479	0.00000	3526.27800
0.88862	0.00000	3525.85300
0.89245	0.00000	3525.85300
0.89628	0.00000	3525.85300
0.90011	0.00000	3525.85300
0.90394	0.00000	3525.85300
0.90776	0.00000	3526.70100
0.91158	0.00000	3526.70100
0.91540	0.00000	3526.70100
0.91923	0.00000	3526.70100
0.92305	0.00000	3525.85300
0.92688	0.00000	3525.85300
0.93071	0.00000	3525.85300
0.93454	0.00000	3525.85300
0.93837	0.00000	3525.85300
0.94219	0.00000	3520.48000
0.94602	0.00000	3520.48000
0.94985	0.00000	3520.48000
0.95367	0.00000	3520.48000
0.95751	0.00000	3519.17600
0.96133	0.00000	3519.17600
0.96515	0.00000	3519.17600
0.96898	0.00000	3519.17600
0.97281	0.00000	3519.17600
0.97664	0.00000	3524.01100
0.98047	0.00000	3524.01100
0.98429	0.00000	3524.01100
0.98811	0.00000	3524.01100
0.99193	0.00000	3518.73800
0.99575	0.00000	3518.73800
0.99958	0.00000	3518.73800
1.00340	0.00000	3518.73800
1.00723	0.00000	3518.73800
1.01105	0.00000	3520.48000
1.01487	0.00000	3520.48000
1.01869	0.00000	3520.48000
1.02251	0.00000	3520.48000
1.02634	0.00000	3521.86300
1.03018	0.00000	3521.86300
1.03400	0.00000	3521.86300
1.03783	0.00000	3521.86300
1.04165	0.00000	3521.86300
1.04548	0.00000	3527.12200
1.04932	0.00000	3527.12200
1.05314	0.00000	3527.12200
1.05696	0.00000	3527.12200
1.06078	0.00000	3518.73800
1.06463	0.00000	3518.73800
1.06846	0.00000	3518.73800
1.07229	0.00000	3518.73800
1.07611	0.00000	3518.73800
1.07994	0.00000	3527.12200
1.08376	0.00000	3527.12200
1.08759	0.00000	3527.12200
1.09140	0.00000	3527.12200
1.09523	0.00000	3515.18000
1.09905	0.00000	3515.18000
1.10287	0.00000	3515.18000
1.10669	0.00000	3515.18000
1.11051	0.00000	3515.18000
1.11433	0.00000	3522.29600
1.11817	0.00000	3522.29600
1.12199	0.00000	3522.29600
1.12582	0.00000	3522.29600
1.12965	0.00000	3511.62200
1.13347	0.00000	3511.62200
1.13729	0.00000	3511.62200
1.14112	0.00000	3511.62200
1.14494	0.00000	3511.62200
1.14877	0.00000	3518.73800
1.15260	0.00000	3518.73800
1.15642	0.00000	3518.73800
1.16025	0.00000	3518.73800
1.16407	0.00000	3518.73800
1.16790	0.00000	3512.07300
1.17172	0.00000	3512.07300
1.17555	0.00000	3512.07300
1.17937	0.00000	3512.07300
1.18320	0.00000	3521.86300
1.18702	0.00000	3521.86300
1.19084	0.00000	3521.86300
1.19468	0.00000	3521.86300
1.19850	0.00000	3521.86300
1.20234	0.00000	3512.97100
1.20617	0.00000	3512.97100
1.20999	0.00000	3512.97100
1.21382	0.00000	3512.97100
1.21764	0.00000	3511.62200
1.22146	0.00000	3511.62200
1.22529	0.00000	3511.62200
1.22911	0.00000	3511.62200
1.23294	0.00000	3511.62200
1.23677	0.00000	3516.50900
1.24060	0.00000	3516.50900
1.24443	0.00000	3516.50900
1.24825	0.00000	3516.50900
1.25208	0.00000	3515.18000
1.25590	0.00000	3515.18000
1.25973	0.00000	3515.18000
1.26355	0.00000	3515.18000
1.26738	0.00000	3515.18000
1.27121	0.00000	3516.50900
1.27504	0.00000	3516.50900
1.27887	0.00000	3516.50900
1.28269	0.00000	3516.50900
1.28651	0.00000	3514.73400
1.29034	0.00000	3514.73400
1.29416	0.00000	3514.73400
1.29800	0.00000	3514.73400
1.30182	0.00000	3514.73400
1.30565	0.00000	3509.43400
1.30948	0.00000	3509.43400
1.31331	0.00000	3509.43400
1.31713	0.00000	3509.43400
1.32095	0.00000	3514.73400
1.32478	0.00000	3514.73400
1.32861	0.00000	3514.73400
1.33243	0.00000	3514.73400
1.33626	0.00000	3514.73400
1.34008	0.00000	3512.97100
1.34391	0.00000	3512.97100
1.34773	0.00000	3512.97100
1.35156	0.00000	3512.97100
1.35539	0.00000	3511.62200
1.35922	0.00000	3511.62200
1.36305	0.00000	3511.62200
1.36688	0.00000	3511.62200
1.37070	0.00000	3511.62200
1.37452	0.00000	3512.97100
1.37835	0.00000	3512.97100
1.38219	0.00000	3512.97100
1.38601	0.00000	3512.97100
1.38984	0.00000	3511.16900
1.39366	0.00000	3511.16900
1.39748	0.00000	3511.16900
1.40130	0.00000	3511.16900
1.40512	0.00000	3511.16900
1.40894	0.00000	3512.52300
1.41277	0.00000	3512.52300
1.41660	0.00000	3512.52300
1.42042	0.00000	3512.52300
1.42426	0.00000	3518.29800
1.42809	0.00000	3518.29800
1.43191	0.00000	3518.29800
1.43574	0.00000	3518.29800
1.43956	0.00000	3518.29800
1.44339	0.00000	3515.18000
1.44721	0.00000	3515.18000
1.45104	0.00000	3515.18000
1.45486	0.00000	3515.18000
1.45869	0.00000	3515.18000
1.46251	0.00000	3508.52200
1.46633	0.00000	3508.52200
1.47016	0.00000	3508.52200
1.47398	0.00000	3508.52200
1.47779	0.00000	3518.29800
1.48160	0.00000	3518.29800
1.48542	0.00000	3518.29800
1.48923	0.00000	3518.29800
1.49303	0.00000	3518.29800
1.49684	0.00000	3509.43400
1.50066	0.00000	3509.43400
1.50447	0.00000	3509.43400
1.50827	0.00000	3509.43400
1.51208	0.00000	3511.16900
1.51590	0.00000	3511.16900
1.51971	0.00000	3511.16900
1.52353	0.00000	3511.16900
1.52734	0.00000	3511.16900
1.53116	0.00000	3509.43400
1.53497	0.00000	3509.43400
1.53878	0.00000	3509.43400
1.54260	0.00000	3509.43400
1.54641	0.00000	3511.16900
1.55023	0.00000	3511.16900
1.55404	0.00000	3511.16900
1.55786	0.00000	3511.16900
1.56168	0.00000	3511.16900
1.56549	0.00000	3505.43400
1.56930	0.00000	3505.43400
1.57311	0.00000	3505.43400
1.57695	0.00000	3505.43400
1.58078	0.00000	3514.28500
1.58461	0.00000	3514.28500
1.58843	0.00000	3514.28500
1.59225	0.00000	3514.28500
1.59608	0.00000	3514.28500
1.59990	0.00000	3512.52300
1.60374	0.00000	3512.52300
1.60756	0.00000	3512.52300
1.61138	0.00000	3512.52300
1.61521	0.00000	3500.47500
1.61905	0.00000	3500.47500
1.62288	0.00000	3500.47500
1.62670	0.00000	3500.47500
1.63053	0.00000	3500.47500
1.63434	0.00000	3501.42000
1.63817	0.00000	3501.42000
1.64199	0.00000	3501.42000
1.64581	0.00000	3501.42000
1.64963	0.00000	3507.14300
1.65347	0.00000	3507.14300
1.65729	0.00000	3507.14300
1.66111	0.00000	3507.14300
1.66493	0.00000	3507.14300
1.66876	0.00000	3501.89000
1.67257	0.00000	3501.89000
1.67640	0.00000	3501.89000
1.68021	0.00000	3501.89000
1.68404	0.00000	3496.42800
1.68786	0.00000	3496.42800
1.69168	0.00000	3496.42800
1.69551	0.00000	3496.42800
1.69933	0.00000	3496.42800
1.70316	0.00000	3500.94800
1.70697	0.00000	3500.94800
1.71079	0.00000	3500.94800
1.71462	0.00000	3500.94800
1.71845	0.00000	3492.85700
1.72228	0.00000	3492.85700
1.72611	0.00000	3492.85700
1.72994	0.00000	3492.85700
1.73376	0.00000	3492.85700
1.73759	0.00000	3493.83300
1.74141	0.00000	3493.83300
1.74525	0.00000	3493.83300
1.74907	0.00000	3493.83300
1.75290	0.00000	3500.00000
1.75672	0.00000	3500.00000
1.76054	0.00000	3500.00000
1.76437	0.00000	3500.00000
1.76818	0.00000	3500.00000
1.77201	0.00000	3500.00000
1.77583	0.00000	3500.00000
1.77966	0.00000	3500.00000
1.78348	0.00000	3500.00000
1.78731	0.00000	3503.10100
1.79113	0.00000	3503.10100
1.79496	0.00000	3503.10100
1.79878	0.00000	3503.10100
1.80261	0.00000	3503.10100
1.80644	0.00000	3503.57100
1.81026	0.00000	3503.57100
1.81408	0.00000	3503.57100
1.81790	0.00000	3503.57100
1.82173	0.00000	3503.57100
1.82554	0.00000	3496.91000
1.82937	0.00000	3496.91000
1.83319	0.00000	3496.91000
1.83702	0.00000	3496.91000
1.84085	0.00000	3496.42800
1.84468	0.00000	3496.42800
1.84850	0.00000	3496.42800
1.85233	0.00000	3496.42800
1.85616	0.00000	3496.42800
1.85997	0.00000	3497.39000
1.86380	0.00000	3497.39000
1.86763	0.00000	3497.39000
1.87145	0.00000	3497.39000
1.87528	0.00000	3499.52200
1.87910	0.00000	3499.52200
1.88292	0.00000	3499.52200
1.88675	0.00000	3499.52200
1.89057	0.00000	3499.52200
1.89439	0.00000	3493.83300
1.89822	0.00000	3493.83300
1.90205	0.00000	3493.83300
1.90587	0.00000	3493.83300
1.90969	0.00000	3495.94400
1.91351	0.00000	3495.94400
1.91734	0.00000	3495.94400
1.92116	0.00000	3495.94400
1.92499	0.00000	3495.94400
1.92881	0.00000	3497.39000
1.93262	0.00000	3497.39000
1.93645	0.00000	3497.39000
1.94028	0.00000	3497.39000
1.94410	0.00000	3495.94400
1.94792	0.00000	3495.94400
1.95174	0.00000	3495.94400
1.95555	0.00000	3495.94400
1.95938	0.00000	3495.94400
1.96322	0.00000	3490.76600
1.96704	0.00000	3490.76600
1.97087	0.00000	3490.76600
1.97470	0.00000	3490.76600
1.97852	0.00000	3492.85700
1.98235	0.00000	3492.85700
1.98617	0.00000	3492.85700
1.98999	0.00000	3492.85700
1.99382	0.00000	3492.85700
1.99765	0.00000	3497.86900
2.00147	0.00000	3497.86900
2.00530	0.00000	3497.86900
2.00911	0.00000	3497.86900
2.01294	0.00000	3503.10100
2.01676	0.00000	3503.10100
2.02058	0.00000	3503.10100
2.02440	0.00000	3503.10100
2.02823	0.00000	3503.10100
2.03204	0.00000	3491.25700
2.03587	0.00000	3491.25700
2.03969	0.00000	3491.25700
2.04351	0.00000	3491.25700
2.04733	0.00000	3495.94400
2.05115	0.00000	3495.94400
2.05498	0.00000	3495.94400
2.05880	0.00000	3495.94400
2.06262	0.00000	3495.94400
2.06646	0.00000	3501.42000
2.07028	0.00000	3501.42000
2.07411	0.00000	3501.42000
2.07793	0.00000	3501.42000
2.08176	0.00000	3496.42800
2.08559	0.00000	3496.42800
2.08941	0.00000	3496.42800
2.09323	0.00000	3496.42800
2.09705	0.00000	3496.42800
2.10089	0.00000	3497.86900
2.10471	0.00000	3497.86900
2.10854	0.00000	3497.86900
2.11237	0.00000	3497.86900
2.11619	0.00000	3492.85700
2.12001	0.00000	3492.85700
2.12383	0.00000	3492.85700
2.12766	0.00000	3492.85700
2.13149	0.00000	3492.85700
2.13531	0.00000	3497.86900
2.13914	0.00000	3497.86900
2.14296	0.00000	3497.86900
2.14678	0.00000	3497.86900
2.15061	0.00000	3495.94400
2.15444	0.00000	3495.94400
2.15826	0.00000	3495.94400
2.16208	0.00000	3495.94400
2.16591	0.00000	3495.94400
2.16973	0.00000	3494.31800
2.17354	0.00000	3494.31800
2.17737	0.00000	3494.31800
2.18121	0.00000	3494.31800
2.18503	0.00000	3492.85700
2.18886	0.00000	3492.85700
2.19268	0.00000	3492.85700
2.19652	0.00000	3492.85700
2.20034	0.00000	3492.85700
2.20418	0.00000	3501.42000
2.20802	0.00000	3501.42000
2.21186	0.00000	3501.42000
2.21569	0.00000	3501.42000
2.21952	0.00000	3499.52200
2.22335	0.00000	3499.52200
2.22718	0.00000	3499.52200
2.23101	0.00000	3499.52200
2.23483	0.00000	3499.52200
2.23865	0.00000	3491.25700
2.24247	0.00000	3491.25700
2.24630	0.00000	3491.25700
2.25013	0.00000	3491.25700
2.25396	0.00000	3496.42800
2.25778	0.00000	3496.42800
2.26161	0.00000	3496.42800
2.26547	0.00000	3496.42800
2.26932	0.00000	3496.42800
2.27320	0.00000	3501.42000
2.27705	0.00000	3501.42000
2.28088	0.00000	3501.42000
2.28470	0.00000	3501.42000
2.28853	0.00000	3499.52200
2.29237	0.00000	3499.52200
2.29619	0.00000	3499.52200
2.30001	0.00000	3499.52200
2.30385	0.00000	3499.52200
2.30767	0.00000	3494.31800
2.31149	0.00000	3494.31800
2.31531	0.00000	3494.31800
2.31914	0.00000	3494.31800
2.32297	0.00000	3488.78800
2.32680	0.00000	3488.78800
2.33063	0.00000	3488.78800
2.33444	0.00000	3488.78800
2.33827	0.00000	3488.78800
2.34210	0.00000	3500.94800
2.34594	0.00000	3500.94800
2.34976	0.00000	3500.94800
2.35359	0.00000	3500.94800
2.35741	0.00000	3499.52200
2.36124	0.00000	3499.52200
2.36506	0.00000	3499.52200
2.36889	0.00000	3499.52200
2.37271	0.00000	3499.52200
2.37654	0.00000	3494.31800
2.38037	0.00000	3494.31800
2.38419	0.00000	3494.31800
2.38801	0.00000	3494.31800
2.39184	0.00000	3492.36600
2.39567	0.00000	3492.36600
2.39949	0.00000	3492.36600
2.40331	0.00000	3492.36600
2.40713	0.00000	3492.36600
2.41096	0.00000	3500.47500
2.41478	0.00000	3500.47500
2.41861	0.00000	3500.47500
2.42244	0.00000	3500.47500
2.42628	0.00000	3492.85700
2.43011	0.00000	3492.85700
2.43394	0.00000	3492.85700
2.43775	0.00000	3492.85700
2.44158	0.00000	3492.85700
2.44541	0.00000	3489.78100
2.44923	0.00000	3489.78100
2.45305	0.00000	3489.78100
2.45688	0.00000	3489.78100
2.46070	0.00000	3496.42800
2.46453	0.00000	3496.42800
2.46836	0.00000	3496.42800
2.47217	0.00000	3496.42800
2.47599	0.00000	3496.42800
2.47981	0.00000	3489.78100
2.48364	0.00000	3489.78100
2.48747	0.00000	3489.78100
2.49130	0.00000	3489.78100
2.49512	0.00000	3496.42800
2.49894	0.00000	3496.42800
2.50276	0.00000	3496.42800
2.50657	0.00000	3496.42800
2.51039	0.00000	3496.42800
2.51422	0.00000	3492.85700
2.51804	0.00000	3492.85700
2.52188	0.00000	3492.85700
2.52571	0.00000	3492.85700
2.52954	0.00000	3492.85700
2.53336	0.00000	3492.85700
2.53717	0.00000	3492.85700
2.54100	0.00000	3492.85700
2.54482	0.00000	3492.85700
2.54866	0.00000	3496.42800
2.55248	0.00000	3496.42800
2.55632	0.00000	3496.42800
2.56014	0.00000	3496.42800
2.56396	0.00000	3496.42800
2.56778	0.00000	3493.34600
2.57160	0.00000	3493.34600
2.57540	0.00000	3493.34600
2.57923	0.00000	3493.34600
2.58306	0.00000	3496.42800
2.58689	0.00000	3496.42800
2.59071	0.00000	3496.42800
2.59454	0.00000	3496.42800
2.59837	0.00000	3496.42800
2.60219	0.00000	3493.83300
2.60601	0.00000	3493.83300
2.60983	0.00000	3493.83300
2.61366	0.00000	3493.83300
2.61748	0.00000	3495.94400
2.62131	0.00000	3495.94400
2.62513	0.00000	3495.94400
2.62895	0.00000	3495.94400
2.63278	0.00000	3495.94400
2.63660	0.00000	3497.39000
2.64042	0.00000	3497.39000
2.64424	0.00000	3497.39000
2.64807	0.00000	3497.39000
2.65188	0.00000	3499.52200
2.65571	0.00000	3499.52200
2.65953	0.00000	3499.52200
2.66337	0.00000	3499.52200
2.66721	0.00000	3499.52200
2.67103	0.00000	3508.06400
2.67485	0.00000	3508.06400
2.67868	0.00000	3508.06400
2.68251	0.00000	3508.06400
2.68633	0.00000	3499.52200
2.69015	0.00000	3499.52200
2.69397	0.00000	3499.52200
2.69780	0.00000	3499.52200
2.70163	0.00000	3499.52200
2.70545	0.00000	3504.97100
2.70927	0.00000	3504.97100
2.71309	0.00000	3504.97100
2.71691	0.00000	3504.97100
2.72073	0.00000	3499.52200
2.72455	0.00000	3499.52200
2.72837	0.00000	3499.52200
2.73220	0.00000	3499.52200
2.73602	0.00000	3499.52200
2.73985	0.00000	3491.25700
2.74367	0.00000	3491.25700
2.74749	0.00000	3491.25700
2.75131	0.00000	3491.25700
2.75513	0.00000	3500.00000
2.75896	0.00000	3500.00000
2.76278	0.00000	3500.00000
2.76661	0.00000	3500.00000
2.77044	0.00000	3500.00000
2.77426	0.00000	3501.42000
2.77808	0.00000	3501.42000
2.78191	0.00000	3501.42000
2.78573	0.00000	3501.42000
2.78956	0.00000	3492.85700
2.79339	0.00000	3492.85700
2.79721	0.00000	3492.85700
2.80104	0.00000	3492.85700
2.80485	0.00000	3492.85700
2.80868	0.00000	3497.86900
2.81251	0.00000	3497.86900
2.81633	0.00000	3497.86900
2.82016	0.00000	3497.86900
2.82398	0.00000	3499.52200
2.82781	0.00000	3499.52200
2.83164	0.00000	3499.52200
2.83547	0.00000	3499.52200
2.83929	0.00000	3499.52200
2.84312	0.00000	3491.25700
2.84694	0.00000	3491.25700
2.85076	0.00000	3491.25700
2.85459	0.00000	3491.25700
2.85841	0.00000	3500.00000
2.86223	0.00000	3500.00000
2.86605	0.00000	3500.00000
2.86987	0.00000	3500.00000
2.87370	0.00000	3500.00000
2.87753	0.00000	3497.86900
2.88134	0.00000	3497.86900
2.88517	0.00000	3497.86900
2.88900	0.00000	3497.86900
2.89283	0.00000	3496.42800
2.89666	0.00000	3496.42800
2.90049	0.00000	3496.42800
2.90431	0.00000	3496.42800
2.90813	0.00000	3496.42800
2.91196	0.00000	3494.80100
2.91578	0.00000	3494.80100
2.91962	0.00000	3494.80100
2.92345	0.00000	3494.80100
2.92729	0.00000	3499.52200
2.93112	0.00000	3499.52200
2.93495	0.00000	3499.52200
2.93878	0.00000	3499.52200
2.94260	0.00000	3499.52200
2.94643	0.00000	3497.86900
2.95025	0.00000	3497.86900
2.95407	0.00000	3497.86900
2.95789	0.00000	3497.86900
2.96171	0.00000	3496.42800
2.96554	0.00000	3496.42800
2.96937	0.00000	3496.42800
2.97319	0.00000	3496.42800
2.97702	0.00000	3496.42800
2.98085	0.00000	3497.86900
2.98466	0.00000	3497.86900
2.98849	0.00000	3497.86900
2.99232	0.00000	3497.86900
2.99614	0.00000	3489.28500
2.99996	0.00000	3489.28500
3.00379	0.00000	3489.28500
3.00762	0.00000	3489.28500
3.01145	0.00000	3489.28500
3.01527	0.00000	3493.83300
3.01909	0.00000	3493.83300
3.02291	0.00000	3493.83300
3.02674	0.00000	3493.83300
3.03057	0.00000	3499.52200
3.03440	0.00000	3499.52200
3.03822	0.00000	3499.52200
3.04205	0.00000	3499.52200
3.04587	0.00000	3499.52200
3.04970	0.00000	3500.47500
3.05352	0.00000	3500.47500
3.05734	0.00000	3500.47500
3.06117	0.00000	3500.47500
3.06499	0.00000	3503.10100
3.06881	0.00000	3503.10100
3.07264	0.00000	3503.10100
3.07646	0.00000	3503.10100
3.08029	0.00000	3503.10100
3.08411	0.00000	3496.42800
3.08794	0.00000	3496.42800
3.09176	0.00000	3496.42800
3.09559	0.00000	3496.42800
3.09940	0.00000	3492.85700
3.10322	0.00000	3492.85700
3.10705	0.00000	3492.85700
3.11087	0.00000	3492.85700
3.11469	0.00000	3492.85700
3.11851	0.00000	3496.91000
3.12233	0.00000	3496.91000
3.12616	0.00000	3496.91000
3.12998	0.00000	3496.91000
3.13380	0.00000	3496.91000
3.13764	0.00000	3500.47500
3.14146	0.00000	3500.47500
3.14529	0.00000	3500.47500
3.14911	0.00000	3500.47500
3.15294	0.00000	3503.10100
3.15676	0.00000	3503.10100
3.16058	0.00000	3503.10100
3.16441	0.00000	3503.10100
3.16823	0.00000	3503.10100
3.17206	0.00000	3504.03900
3.17588	0.00000	3504.03900
3.17970	0.00000	3504.03900
3.18354	0.00000	3504.03900
3.18737	0.00000	3503.10100
3.19120	0.00000	3503.10100
3.19502	0.00000	3503.10100
3.19884	0.00000	3503.10100
3.20267	0.00000	3503.10100
3.20649	0.00000	3497.39000
3.21030	0.00000	3497.39000
3.21413	0.00000	3497.39000
3.21795	0.00000	3497.39000
3.22177	0.00000	3492.85700
3.22560	0.00000	3492.85700
3.22942	0.00000	3492.85700
3.23324	0.00000	3492.85700
3.23707	0.00000	3492.85700
3.24090	0.00000	3494.80100
3.24472	0.00000	3494.80100
3.24855	0.00000	3494.80100
3.25237	0.00000	3494.80100
3.25620	0.00000	3503.57100
3.26002	0.00000	3503.57100
3.26385	0.00000	3503.57100
3.26768	0.00000	3503.57100
3.27150	0.00000	3503.57100
3.27534	0.00000	3498.34600
3.27917	0.00000	3498.34600
3.28299	0.00000	3498.34600
3.28682	0.00000	3498.34600
3.29064	0.00000	3500.00000
3.29447	0.00000	3500.00000
3.29829	0.00000	3500.00000
3.30213	0.00000	3500.00000
3.30595	0.00000	3500.00000
3.30978	0.00000	3494.80100
3.31361	0.00000	3494.80100
3.31744	0.00000	3494.80100
3.32126	0.00000	3494.80100
3.32509	0.00000	3503.57100
3.32891	0.00000	3503.57100
3.33273	0.00000	3503.57100
3.33655	0.00000	3503.57100
3.34038	0.00000	3503.57100
3.34420	0.00000	3501.89000
3.34803	0.00000	3501.89000
3.35185	0.00000	3501.89000
3.35569	0.00000	3501.89000
3.35951	0.00000	3500.00000
3.36334	0.00000	3500.00000
3.36718	0.00000	3500.00000
3.37100	0.00000	3500.00000
3.37483	0.00000	3500.00000
3.37865	0.00000	3505.43400
3.38248	0.00000	3505.43400
3.38631	0.00000	3505.43400
3.39013	0.00000	3505.43400
3.39395	0.00000	3503.10100
3.39778	0.00000	3503.10100
3.40160	0.00000	3503.10100
3.40543	0.00000	3503.10100
3.40926	0.00000	3503.10100
3.41309	0.00000	3501.42000
3.41691	0.00000	3501.42000
3.42073	0.00000	3501.42000
3.42455	0.00000	3501.42000
3.42838	0.00000	3496.91000
3.43221	0.00000	3496.91000
3.43603	0.00000	3496.91000
3.43986	0.00000	3496.91000
3.44368	0.00000	3496.91000
3.44751	0.00000	3504.97100
3.45133	0.00000	3504.97100
3.45516	0.00000	3504.97100
3.45898	0.00000	3504.97100
3.46280	0.00000	3500.00000
3.46664	0.00000	3500.00000
3.47047	0.00000	3500.00000
3.47429	0.00000	3500.00000
3.47811	0.00000	3500.00000
3.48193	0.00000	3501.42000
3.48576	0.00000	3501.42000
3.48958	0.00000	3501.42000
3.49340	0.00000	3501.42000
3.49722	0.00000	3496.91000
3.50105	0.00000	3496.91000
3.50487	0.00000	3496.91000
3.50870	0.00000	3496.91000
3.51252	0.00000	3496.91000
3.51635	0.00000	3498.34600
3.52018	0.00000	3498.34600
3.52400	0.00000	3498.34600
3.52782	0.00000	3498.34600
3.53164	0.00000	3500.00000
3.53547	0.00000	3500.00000
3.53930	0.00000	3500.00000
3.54311	0.00000	3500.00000
3.54694	0.00000	3500.00000
3.55075	0.00000	3504.50600
3.55458	0.00000	3504.50600
3.55842	0.00000	3504.50600
3.56224	0.00000	3504.50600
3.56606	0.00000	3503.57100
3.56990	0.00000	3503.57100
3.57373	0.00000	3503.57100
3.57755	0.00000	3503.57100
3.58137	0.00000	3503.57100
3.58519	0.00000	3504.03900
3.58902	0.00000	3504.03900
3.59286	0.00000	3504.03900
3.59668	0.00000	3504.03900
3.60050	0.00000	3503.57100
3.60432	0.00000	3503.57100
3.60815	0.00000	3503.57100
3.61200	0.00000	3503.57100
3.61582	0.00000	3503.57100
3.61965	0.00000	3500.47500
3.62348	0.00000	3500.47500
3.62730	0.00000	3500.47500
3.63112	0.00000	3500.47500
3.63494	0.00000	3503.57100
3.63876	0.00000	3503.57100
3.64258	0.00000	3503.57100
3.64640	0.00000	3503.57100
3.65022	0.00000	3503.57100
3.65405	0.00000	3496.42800
3.65787	0.00000	3496.42800
3.66170	0.00000	3496.42800
3.66553	0.00000	3496.42800
3.66935	0.00000	3496.42800
3.67317	0.00000	3500.00000
3.67699	0.00000	3500.00000
3.68082	0.00000	3500.00000
3.68464	0.00000	3500.00000
3.68846	0.00000	3500.00000
3.69229	0.00000	3500.00000
3.69611	0.00000	3500.00000
3.69994	0.00000	3500.00000
3.70377	0.00000	3500.00000
3.70759	0.00000	3493.34600
3.71140	0.00000	3493.34600
3.71522	0.00000	3493.34600
3.71905	0.00000	3493.34600
3.72288	0.00000	3496.42800
3.72671	0.00000	3496.42800
3.73053	0.00000	3496.42800
3.73436	0.00000	3496.42800
3.73819	0.00000	3496.42800
3.74201	0.00000	3494.31800
3.74584	0.00000	3494.31800
3.74967	0.00000	3494.31800
3.75349	0.00000	3494.31800
3.75731	0.00000	3496.42800
3.76114	0.00000	3496.42800
3.76496	0.00000	3496.42800
3.76879	0.00000	3496.42800
3.77261	0.00000	3496.42800
3.77643	0.00000	3501.42000
3.78026	0.00000	3501.42000
3.78409	0.00000	3501.42000
3.78791	0.00000	3501.42000
3.79173	0.00000	3492.85700
3.79556	0.00000	3492.85700
3.79939	0.00000	3492.85700
3.80323	0.00000	3492.85700
3.80705	0.00000	3492.85700
3.81087	0.00000	3497.86900
3.81469	0.00000	3497.86900
3.81851	0.00000	3497.86900
3.82232	0.00000	3497.86900
3.82615	0.00000	3492.85700
3.82997	0.00000	3492.85700
3.83379	0.00000	3492.85700
3.83762	0.00000	3492.85700
3.84144	0.00000	3492.85700
3.84527	0.00000	3501.42000
3.84910	0.00000	3501.42000
3.85292	0.00000	3501.42000
3.85674	0.00000	3501.42000
3.86056	0.00000	3499.52200
3.86438	0.00000	3499.52200
3.86820	0.00000	3499.52200
3.87202	0.00000	3499.52200
3.87584	0.00000	3499.52200
3.87967	0.00000	3487.71200
3.88350	0.00000	3487.71200
3.88732	0.00000	3487.71200
3.89114	0.00000	3487.71200
3.89496	0.00000	3495.94400
3.89879	0.00000	3495.94400
3.90262	0.00000	3495.94400
3.90644	0.00000	3495.94400
3.91027	0.00000	3495.94400
3.91409	0.00000	3497.86900
3.91792	0.00000	3497.86900
3.92174	0.00000	3497.86900
3.92556	0.00000	3497.86900
3.92938	0.00000	3499.52200
3.93321	0.00000	3499.52200
3.93703	0.00000	3499.52200
3.94085	0.00000	3499.52200
3.94468	0.00000	3499.52200
3.94851	0.00000	3497.86900
3.95233	0.00000	3497.86900
3.95616	0.00000	3497.86900
3.95999	0.00000	3497.86900
3.96381	0.00000	3499.52200
3.96765	0.00000	3499.52200
3.97147	0.00000	3499.52200
3.97529	0.00000	3499.52200
3.97911	0.00000	3499.52200
3.98293	0.00000	3490.76600
3.98675	0.00000	3490.76600
3.99057	0.00000	3490.76600
3.99440	0.00000	3490.76600
3.99823	0.00000	3492.85700
4.00207	0.00000	3492.85700
4.00589	0.00000	3492.85700
4.00971	0.00000	3492.85700
4.01353	0.00000	3492.85700
4.01735	0.00000	3491.25700
4.02118	0.00000	3491.25700
4.02500	0.00000	3491.25700
4.02882	0.00000	3491.25700
4.03264	0.00000	3499.52200
4.03647	0.00000	3499.52200
4.04030	0.00000	3499.52200
4.04412	0.00000	3499.52200
4.04795	0.00000	3499.52200
4.05177	0.00000	3497.86900
4.05560	0.00000	3497.86900
4.05940	0.00000	3497.86900
4.06323	0.00000	3497.86900
4.06705	0.00000	3495.94400
4.07088	0.00000	3495.94400
4.07472	0.00000	3495.94400
4.07854	0.00000	3495.94400
4.08236	0.00000	3495.94400
4.08619	0.00000	3494.31800
4.09001	0.00000	3494.31800
4.09384	0.00000	3494.31800
4.09766	0.00000	3494.31800
4.10149	0.00000	3492.36600
4.10531	0.00000	3492.36600
4.10914	0.00000	3492.36600
4.11297	0.00000	3492.36600
4.11679	0.00000	3492.36600
4.12062	0.00000	3494.31800
4.12444	0.00000	3494.31800
4.12827	0.00000	3494.31800
4.13210	0.00000	3494.31800
4.13592	0.00000	3496.42800
4.13975	0.00000	3496.42800
4.14358	0.00000	3496.42800
4.14739	0.00000	3496.42800
4.15122	0.00000	3496.42800
4.15505	0.00000	3500.94800
4.15887	0.00000	3500.94800
4.16270	0.00000	3500.94800
4.16653	0.00000	3500.94800
4.17035	0.00000	3492.85700
4.17416	0.00000	3492.85700
4.17799	0.00000	3492.85700
4.18181	0.00000	3492.85700
4.18564	0.00000	3492.85700
4.18947	0.00000	3492.85700
4.19329	0.00000	3492.85700
4.19712	0.00000	3492.85700
4.20095	0.00000	3492.85700
4.20477	0.00000	3495.94400
4.20860	0.00000	3495.94400
4.21244	0.00000	3495.94400
4.21626	0.00000	3495.94400
4.22008	0.00000	3495.94400
4.22391	0.00000	3496.91000
4.22774	0.00000	3496.91000
4.23156	0.00000	3496.91000
4.23539	0.00000	3496.91000
4.23922	0.00000	3496.42800
4.24304	0.00000	3496.42800
4.24686	0.00000	3496.42800
4.25069	0.00000	3496.42800
4.25451	0.00000	3496.42800
4.25833	0.00000	3492.85700
4.26217	0.00000	3492.85700
4.26599	0.00000	3492.85700
4.26981	0.00000	3492.85700
4.27364	0.00000	3496.42800
4.27745	0.00000	3496.42800
4.28128	0.00000	3496.42800
4.28510	0.00000	3496.42800
4.28892	0.00000	3496.42800
4.29275	0.00000	3496.42800
4.29657	0.00000	3496.42800
4.30040	0.00000	3496.42800
4.30422	0.00000	3496.42800
4.30804	0.00000	3496.42800
4.31186	0.00000	3496.91000
4.31568	0.00000	3496.91000
4.31951	0.00000	3496.91000
4.32333	0.00000	3496.91000
4.32715	0.00000	3488.78800
4.33097	0.00000	3488.78800
4.33479	0.00000	3488.78800
4.33861	0.00000	3488.78800
4.34243	0.00000	3488.78800
4.34625	0.00000	3497.39000
4.35008	0.00000	3497.39000
4.35390	0.00000	3497.39000
4.35772	0.00000	3497.39000
4.36155	0.00000	3492.85700
4.36537	0.00000	3492.85700
4.36921	0.00000	3492.85700
4.37303	0.00000	3492.85700
4.37686	0.00000	3492.85700
4.38069	0.00000	3500.94800
4.38452	0.00000	3500.94800
4.38834	0.00000	3500.94800
4.39216	0.00000	3500.94800
4.39599	0.00000	3499.52200
4.39981	0.00000	3499.52200
4.40363	0.00000	3499.52200
4.40745	0.00000	3499.52200
4.41128	0.00000	3499.52200
4.41510	0.00000	3493.83300
4.41892	0.00000	3493.83300
4.42275	0.00000	3493.83300
4.42658	0.00000	3493.83300
4.43041	0.00000	3489.28500
4.43423	0.00000	3489.28500
4.43806	0.00000	3489.28500
4.44188	0.00000	3489.28500
4.44571	0.00000	3489.28500
4.44954	0.00000	3497.86900
4.45336	0.00000	3497.86900
4.45719	0.00000	3497.86900
4.46102	0.00000	3497.86900
4.46484	0.00000	3492.85700
4.46867	0.00000	3492.85700
4.47249	0.00000	3492.85700
4.47631	0.00000	3492.85700
4.48014	0.00000	3492.85700
4.48396	0.00000	3497.86900
4.48778	0.00000	3497.86900
4.49161	0.00000	3497.86900
4.49540	0.00000	3497.86900
4.49923	0.00000	3499.52200
4.50306	0.00000	3499.52200
4.50688	0.00000	3499.52200
4.51070	0.00000	3499.52200
4.51453	0.00000	3499.52200
4.51836	0.00000	3494.31800
4.52219	0.00000	3494.31800
4.52601	0.00000	3494.31800
4.52983	0.00000	3494.31800
4.53366	0.00000	3489.28500
4.53748	0.00000	3489.28500
4.54131	0.00000	3489.28500
4.54513	0.00000	3489.28500
4.54895	0.00000	3489.28500
4.55277	0.00000	3490.76600
4.55659	0.00000	3490.76600
4.56041	0.00000	3490.76600
4.56423	0.00000	3490.76600
4.56807	0.00000	3495.94400
4.57189	0.00000	3495.94400
4.57571	0.00000	3495.94400
4.57954	0.00000	3495.94400
4.58337	0.00000	3495.94400
4.58720	0.00000	3490.76600
4.59103	0.00000	3490.76600
4.59486	0.00000	3490.76600
4.59869	0.00000	3490.76600
4.60251	0.00000	3492.85700
4.60633	0.00000	3492.85700
4.61016	0.00000	3492.85700
4.61398	0.00000	3492.85700
4.61780	0.00000	3492.85700
4.62164	0.00000	3494.31800
4.62546	0.00000	3494.31800
4.62928	0.00000	3494.31800
4.63311	0.00000	3494.31800
4.63693	0.00000	3495.45800
4.64075	0.00000	3495.45800
4.64458	0.00000	3495.45800
4.64840	0.00000	3495.45800
4.65223	0.00000	3495.45800
4.65605	0.00000	3487.21500
4.65987	0.00000	3487.21500
4.66369	0.00000	3487.21500
4.66751	0.00000	3487.21500
4.67134	0.00000	3492.36600
4.67515	0.00000	3492.36600
4.67898	0.00000	3492.36600
4.68281	0.00000	3492.36600
4.68663	0.00000	3492.36600
4.69046	0.00000	3494.31800
4.69428	0.00000	3494.31800
4.69811	0.00000	3494.31800
4.70193	0.00000	3494.31800
4.70576	0.00000	3495.94400
4.70961	0.00000	3495.94400
4.71343	0.00000	3495.94400
4.71725	0.00000	3495.94400
4.72108	0.00000	3495.94400
4.72491	0.00000	3494.31800
4.72873	0.00000	3494.31800
4.73255	0.00000	3494.31800
4.73637	0.00000	3494.31800
4.74020	0.00000	3495.94400
4.74402	0.00000	3495.94400
4.74784	0.00000	3495.94400
4.75166	0.00000	3495.94400
4.75548	0.00000	3495.94400
4.75931	0.00000	3494.31800
4.76314	0.00000	3494.31800
4.76696	0.00000	3494.31800
4.77079	0.00000	3494.31800
4.77461	0.00000	3495.45800
4.77843	0.00000	3495.45800
4.78225	0.00000	3495.45800
4.78608	0.00000	3495.45800
4.78991	0.00000	3495.45800
4.79373	0.00000	3493.83300
4.79755	0.00000	3493.83300
4.80137	0.00000	3493.83300
4.80519	0.00000	3493.83300
4.80903	0.00000	3485.71400
4.81285	0.00000	3485.71400
4.81668	0.00000	3485.71400
4.82050	0.00000	3485.71400
4.82432	0.00000	3485.71400
4.82815	0.00000	3483.15900
4.83197	0.00000	3483.15900
4.83580	0.00000	3483.15900
4.83962	0.00000	3483.15900
4.84346	0.00000	3492.36600
4.84728	0.00000	3492.36600
4.85111	0.00000	3492.36600
4.85494	0.00000	3492.36600
4.85877	0.00000	3492.36600
4.86258	0.00000	3496.42800
4.86640	0.00000	3496.42800
4.87023	0.00000	3496.42800
4.87405	0.00000	3496.42800
4.87788	0.00000	3495.45800
4.88171	0.00000	3495.45800
4.88553	0.00000	3495.45800
4.88935	0.00000	3495.45800
4.89317	0.00000	3495.45800
4.89700	0.00000	3482.14200
4.90082	0.00000	3482.14200
4.90464	0.00000	3482.14200
4.90846	0.00000	3482.14200
4.91229	0.00000	3492.36600
4.91611	0.00000	3492.36600
4.91993	0.00000	3492.36600
4.92375	0.00000	3492.36600
4.92757	0.00000	3492.36600
4.93140	0.00000	3489.28500
4.93522	0.00000	3489.28500
4.93905	0.00000	3489.28500
4.94289	0.00000	3489.28500
4.94671	0.00000	3485.21000
4.95053	0.00000	3485.21000
4.95436	0.00000	3485.21000
4.95818	0.00000	3485.21000
4.96201	0.00000	3485.21000
4.96583	0.00000	3492.85700
4.96965	0.00000	3492.85700
4.97348	0.00000	3492.85700
4.97730	0.00000	3492.85700
4.98113	0.00000	3488.78800
4.98494	0.00000	3488.78800
4.98876	0.00000	3488.78800
4.99258	0.00000	3488.78800
4.99640	0.00000	3488.78800
5.00070	0.00000	3485.21000
5.00457	0.00000	3485.21000
5.00841	0.00000	3485.21000
5.01226	0.00000	3485.21000
5.01611	0.00000	3504.03900
5.01995	0.00000	3504.03900
5.02377	0.00000	3504.03900
5.02761	0.00000	3504.03900
5.03150	0.00000	3504.03900
5.03536	0.00000	3878.96800
5.03920	0.00000	3878.96800
5.04304	0.00000	3878.96800
5.04687	0.00000	3878.96800
5.05071	0.00000	3878.96800
5.05454	0.00000	4218.75000
5.05837	0.00000	4218.75000
5.06221	0.00000	4218.75000
5.06603	0.00000	4218.75000
5.06987	0.00000	4218.75000
5.07370	0.00000	4218.75000
5.07753	0.00000	4519.67600
5.08137	0.00000	4519.67600
5.08520	0.00000	4519.67600
5.08903	0.00000	4519.67600
5.09287	0.00000	4519.67600
5.09671	0.00000	4519.67600
5.10054	0.00000	4792.27100
5.10437	0.00000	4792.27100
5.10821	0.00000	4792.27100
5.11204	0.00000	4792.27100
5.11588	0.00000	4792.27100
5.11971	0.00000	4792.27100
5.12355	0.00000	5048.66800
5.12739	0.00000	5048.66800
5.13124	0.00000	5048.66800
5.13508	0.00000	5048.66800
5.13891	0.00000	5048.66800
5.14274	0.00000	5048.66800
5.14659	0.00000	5253.90600
5.15043	0.00000	5253.90600
5.15427	0.00000	5253.90600
5.15810	0.00000	5253.90600
5.16194	0.00000	5253.90600
5.16577	0.00000	5253.90600
5.16961	0.00000	5253.90600
5.17345	0.00000	5382.98900
5.17731	0.00000	5382.98900
5.18115	0.00000	5382.98900
5.18498	0.00000	5382.98900
5.18882	0.00000	5382.98900
5.19267	0.00000	5382.98900
5.19650	0.00000	5382.98900
5.20034	0.00000	5465.13400
5.20419	0.00000	5465.13400
5.20803	0.00000	5465.13400
5.21187	0.00000	5465.13400
5.21570	0.00000	5465.13400
5.21954	0.00000	5465.13400
5.22339	0.00000	5465.13400
5.22724	0.00000	5530.34800
5.23107	0.00000	5530.34800
5.23491	0.00000	5530.34800
5.23875	0.00000	5530.34800
5.24259	0.00000	5530.34800
5.24642	0.00000	5530.34800
5.25025	0.00000	5530.34800
5.25409	0.00000	5560.34400
5.25794	0.00000	5560.34400
5.26179	0.00000	5560.34400
5.26562	0.00000	5560.34400
5.26945	0.00000	5560.34400
5.27328	0.00000	5560.34400
5.27712	0.00000	5560.34400
5.28095	0.00000	5582.89000
5.28478	0.00000	5582.89000
5.28862	0.00000	5582.89000
5.29246	0.00000	5582.89000
5.29629	0.00000	5582.89000
5.30012	0.00000	5582.89000
5.30396	0.00000	5582.89000
5.30780	0.00000	5582.89000
5.31163	0.00000	5594.11700
5.31546	0.00000	5594.11700
5.31930	0.00000	5594.11700
5.32313	0.00000	5594.11700
5.32697	0.00000	5594.11700
5.33081	0.00000	5594.11700
5.33465	0.00000	5594.11700
5.33850	0.00000	5607.37400
5.34232	0.00000	5607.37400
5.34616	0.00000	5607.37400
5.34999	0.00000	5607.37400
5.35384	0.00000	5607.37400
5.35768	0.00000	5607.37400
5.36151	0.00000	5607.37400
5.36535	0.00000	5605.21700
5.36920	0.00000	5605.21700
5.37303	0.00000	5605.21700
5.37688	0.00000	5605.21700
5.38073	0.00000	5605.21700
5.38458	0.00000	5605.21700
5.38842	0.00000	5605.21700
5.39227	0.00000	5611.81100
5.39613	0.00000	5611.81100
5.39997	0.00000	5611.81100
5.40382	0.00000	5611.81100
5.40765	0.00000	5611.81100
5.41148	0.00000	5611.81100
5.41532	0.00000	5611.81100
5.41916	0.00000	5611.81100
5.42299	0.00000	5616.24800
5.42682	0.00000	5616.24800
5.43066	0.00000	5616.24800
5.43450	0.00000	5616.24800
5.43834	0.00000	5616.24800
5.44218	0.00000	5616.24800
5.44602	0.00000	5616.24800
5.44986	0.00000	5611.84200
5.45369	0.00000	5611.84200
5.45752	0.00000	5611.84200
5.46136	0.00000	5611.84200
5.46520	0.00000	5611.84200
5.46904	0.00000	5611.84200
5.47287	0.00000	5611.84200
5.47670	0.00000	5618.41300
5.48055	0.00000	5618.41300
5.48437	0.00000	5618.41300
5.48821	0.00000	5618.41300
5.49205	0.00000	5618.41300
5.49589	0.00000	5618.41300
5.49973	0.00000	5618.41300
5.50357	0.00000	5625.00000
5.50740	0.00000	5625.00000
5.51125	0.00000	5625.00000
5.51510	0.00000	5625.00000
5.51894	0.00000	5625.00000
5.52277	0.00000	5625.00000
5.52661	0.00000	5625.00000
5.53044	0.00000	5625.00000
5.53428	0.00000	5622.81500
5.53811	0.00000	5622.81500
5.54194	0.00000	5622.81500
5.54579	0.00000	5622.81500
5.54962	0.00000	5622.81500
5.55346	0.00000	5622.81500
5.55730	0.00000	5622.81500
5.56113	0.00000	5622.80400
5.56497	0.00000	5622.80400
5.56880	0.00000	5622.80400
5.57264	0.00000	5622.80400
5.57648	0.00000	5622.80400
5.58032	0.00000	5622.80400
5.58416	0.00000	5622.80400
5.58799	0.00000	5620.60900
5.59183	0.00000	5620.60900
5.59567	0.00000	5620.60900
5.59950	0.00000	5620.60900
5.60334	0.00000	5620.60900
5.60717	0.00000	5620.60900
5.61101	0.00000	5620.60900
5.61485	0.00000	5620.60900
5.61870	0.00000	5620.60900
5.62254	0.00000	5620.60900
5.62637	0.00000	5620.60900
5.63020	0.00000	5620.60900
5.63404	0.00000	5620.60900
5.63788	0.00000	5620.60900
5.64172	0.00000	5620.60900
5.64556	0.00000	5618.44400
5.64941	0.00000	5618.44400
5.65324	0.00000	5618.44400
5.65708	0.00000	5618.44400
5.66092	0.00000	5618.44400
5.66477	0.00000	5618.44400
5.66860	0.00000	5618.44400
5.67244	0.00000	5622.80600
5.67627	0.00000	5622.80600
5.68011	0.00000	5622.80600
5.68394	0.00000	5622.80600
5.68778	0.00000	5622.80600
5.69161	0.00000	5622.80600
5.69540	0.00000	5622.80600
5.69923	0.00000	5620.61400
5.70307	0.00000	5620.61400
5.70691	0.00000	5620.61400
5.71075	0.00000	5620.61400
5.71458	0.00000	5620.61400
5.71844	0.00000	5620.61400
5.72228	0.00000	5620.61400
5.72611	0.00000	5622.80600
5.72995	0.00000	5622.80600
5.73378	0.00000	5622.80600
5.73762	0.00000	5622.80600
5.74147	0.00000	5622.80600
5.74530	0.00000	5622.80600
5.74915	0.00000	5622.80600
5.75299	0.00000	5622.80600
5.75682	0.00000	5614.08600
5.76066	0.00000	5614.08600
5.76451	0.00000	5614.08600
5.76833	0.00000	5614.08600
5.77217	0.00000	5614.08600
5.77601	0.00000	5614.08600
5.77985	0.00000	5614.08600
5.78369	0.00000	5622.80400
5.78753	0.00000	5622.80400
5.79137	0.00000	5622.80400
5.79523	0.00000	5622.80400
5.79907	0.00000	5622.80400
5.80290	0.00000	5622.80400
5.80674	0.00000	5622.80400
5.81059	0.00000	5616.23800
5.81442	0.00000	5616.23800
5.81825	0.00000	5616.23800
5.82209	0.00000	5616.23800
5.82594	0.00000	5616.23800
5.82977	0.00000	5616.23800
5.83361	0.00000	5616.23800
5.83745	0.00000	5625.00000
5.84131	0.00000	5625.00000
5.84514	0.00000	5625.00000
5.84898	0.00000	5625.00000
5.85282	0.00000	5625.00000
5.85668	0.00000	5625.00000
5.86051	0.00000	5625.00000
5.86434	0.00000	5625.00000
5.86818	0.00000	5620.62900
5.87203	0.00000	5620.62900
5.87587	0.00000	5620.62900
5.87971	0.00000	5620.62900
5.88354	0.00000	5620.62900
5.88740	0.00000	5620.62900
5.89123	0.00000	5620.62900
5.89507	0.00000	5622.80600
5.89890	0.00000	5622.80600
5.90276	0.00000	5622.80600
5.90659	0.00000	5622.80600
5.91042	0.00000	5622.80600
5.91425	0.00000	5622.80600
5.91810	0.00000	5622.80600
5.92194	0.00000	5627.19500
5.92578	0.00000	5627.19500
5.92961	0.00000	5627.19500
5.93346	0.00000	5627.19500
5.93729	0.00000	5627.19500
5.94113	0.00000	5627.19500
5.94497	0.00000	5627.19500
5.94880	0.00000	5622.80400
5.95265	0.00000	5622.80400
5.95648	0.00000	5622.80400
5.96032	0.00000	5622.80400
5.96416	0.00000	5622.80400
5.96799	0.00000	5622.80400
5.97182	0.00000	5622.80400
5.97566	0.00000	5622.80400
5.97949	0.00000	5614.06000
5.98332	0.00000	5614.06000
5.98716	0.00000	5614.06000
5.99100	0.00000	5614.06000
5.99483	0.00000	5614.06000
5.99867	0.00000	5614.06000
6.00251	0.00000	5614.06000
6.00634	0.00000	5620.61400
6.01018	0.00000	5620.61400
6.01403	0.00000	5620.61400
6.01786	0.00000	5620.61400
6.02170	0.00000	5620.61400
6.02554	0.00000	5620.61400
6.02938	0.00000	5620.61400
6.03321	0.00000	5622.80400
6.03704	0.00000	5622.80400
6.04087	0.00000	5622.80400
6.04470	0.00000	5622.80400
6.04855	0.00000	5622.80400
6.05239	0.00000	5622.80400
6.05622	0.00000	5622.80400
6.06006	0.00000	5620.60900
6.06389	0.00000	5620.60900
6.06772	0.00000	5620.60900
6.07156	0.00000	5620.60900
6.07540	0.00000	5620.60900
6.07923	0.00000	5620.60900
6.08306	0.00000	5620.60900
6.08690	0.00000	5620.60900
6.09073	0.00000	5614.06000
6.09457	0.00000	5614.06000
6.09841	0.00000	5614.06000
6.10225	0.00000	5614.06000
6.10608	0.00000	5614.06000
6.10991	0.00000	5614.06000
6.11375	0.00000	5614.06000
6.11760	0.00000	5614.02200
6.12144	0.00000	5614.02200
6.12527	0.00000	5614.02200
6.12910	0.00000	5614.02200
6.13294	0.00000	5614.02200
6.13678	0.00000	5614.02200
6.14062	0.00000	5614.02200
6.14446	0.00000	5618.41300
6.14830	0.00000	5618.41300
6.15214	0.00000	5618.41300
6.15598	0.00000	5618.41300
6.15982	0.00000	5618.41300
6.16365	0.00000	5618.41300
6.16749	0.00000	5618.41300
6.17132	0.00000	5614.02200
6.17516	0.00000	5614.02200
6.17900	0.00000	5614.02200
6.18283	0.00000	5614.02200
6.18667	0.00000	5614.02200
6.19052	0.00000	5614.02200
6.19435	0.00000	5614.02200
6.19818	0.00000	5611.82600
6.20202	0.00000	5611.82600
6.20589	0.00000	5611.82600
6.20976	0.00000	5611.82600
6.21361	0.00000	5611.82600
6.21746	0.00000	5611.82600
6.22130	0.00000	5611.82600
6.22515	0.00000	5611.82600
6.22899	0.00000	5611.85700
6.23282	0.00000	5611.85700
6.23666	0.00000	5611.85700
6.24051	0.00000	5611.85700
6.24434	0.00000	5611.85700
6.24818	0.00000	5611.85700
6.25202	0.00000	5611.85700
6.25585	0.00000	5611.82600
6.25969	0.00000	5611.82600
6.26356	0.00000	5611.82600
6.26740	0.00000	5611.82600
6.27126	0.00000	5611.82600
6.27510	0.00000	5611.82600
6.27893	0.00000	5611.82600
6.28278	0.00000	5611.82600
6.28662	0.00000	5611.82600
6.29047	0.00000	5611.82600
6.29431	0.00000	5611.82600
6.29814	0.00000	5611.82600
6.30198	0.00000	5611.82600
6.30582	0.00000	5611.82600
6.30966	0.00000	5611.82600
6.31353	0.00000	5611.82600
6.31736	0.00000	5611.82600
6.32120	0.00000	5611.82600
6.32504	0.00000	5611.82600
6.32888	0.00000	5611.82600
6.33271	0.00000	5611.82600
6.33656	0.00000	5611.82600
6.34039	0.00000	5616.24800
6.34423	0.00000	5616.24800
6.34806	0.00000	5616.24800
6.35190	0.00000	5616.24800
6.35574	0.00000	5616.24800
6.35959	0.00000	5616.24800
6.36340	0.00000	5616.24800
6.36724	0.00000	5616.20700
6.37107	0.00000	5616.20700
6.37490	0.00000	5616.20700
6.37873	0.00000	5616.20700
6.38257	0.00000	5616.20700
6.38641	0.00000	5616.20700
6.39024	0.00000	5616.20700
6.39408	0.00000	5620.60400
6.39791	0.00000	5620.60400
6.40175	0.00000	5620.60400
6.40559	0.00000	5620.60400
6.40943	0.00000	5620.60400
6.41327	0.00000	5620.60400
6.41711	0.00000	5620.60400
6.42094	0.00000	5609.63100
6.42480	0.00000	5609.63100
6.42864	0.00000	5609.63100
6.43247	0.00000	5609.63100
6.43631	0.00000	5609.63100
6.44015	0.00000	5609.63100
6.44399	0.00000	5609.63100
6.44782	0.00000	5609.63100
6.45166	0.00000	5614.06000
6.45548	0.00000	5614.06000
6.45932	0.00000	5614.06000
6.46316	0.00000	5614.06000
6.46701	0.00000	5614.06000
6.47085	0.00000	5614.06000
6.47468	0.00000	5614.06000
6.47852	0.00000	5611.82600
6.48237	0.00000	5611.82600
6.48620	0.00000	5611.82600
6.49005	0.00000	5611.82600
6.49388	0.00000	5611.82600
6.49774	0.00000	5611.82600
6.50158	0.00000	5611.82600
6.50542	0.00000	5614.02200
6.50925	0.00000	5614.02200
6.51309	0.00000	5614.02200
6.51692	0.00000	5614.02200
6.52076	0.00000	5614.02200
6.52459	0.00000	5614.02200
6.52844	0.00000	5614.02200
6.53228	0.00000	5614.02200
6.53612	0.00000	5614.02200
6.53995	0.00000	5614.02200
6.54378	0.00000	5614.02200
6.54762	0.00000	5614.02200
6.55140	0.00000	5614.02200
6.55523	0.00000	5614.02200
6.55908	0.00000	5614.02200
6.56290	0.00000	5614.02200
6.56674	0.00000	5614.02200
6.57058	0.00000	5614.02200
6.57441	0.00000	5614.02200
6.57824	0.00000	5614.02200
6.58207	0.00000	5614.02200
6.58590	0.00000	5614.02200
6.58973	0.00000	5614.02200
6.59357	0.00000	5614.02200
6.59740	0.00000	5614.02200
6.60123	0.00000	5614.02200
6.60506	0.00000	5614.02200
6.60890	0.00000	5614.02200
6.61273	0.00000	5614.02200
6.61657	0.00000	5611.81100
6.62040	0.00000	5611.81100
6.62424	0.00000	5611.81100
6.62808	0.00000	5611.81100
6.63192	0.00000	5611.81100
6.63575	0.00000	5611.81100
6.63959	0.00000	5611.81100
6.64340	0.00000	5618.40600
6.64725	0.00000	5618.40600
6.65108	0.00000	5618.40600
6.65491	0.00000	5618.40600
6.65874	0.00000	5618.40600
6.66258	0.00000	5618.40600
6.66641	0.00000	5618.40600
6.67024	0.00000	5614.00900
6.67407	0.00000	5614.00900
6.67790	0.00000	5614.00900
6.68174	0.00000	5614.00900
6.68558	0.00000	5614.00900
6.68942	0.00000	5614.00900
6.69325	0.00000	5614.00900
6.69708	0.00000	5614.00900
6.70092	0.00000	5609.66700
6.70476	0.00000	5609.66700
6.70859	0.00000	5609.66700
6.71243	0.00000	5609.66700
6.71626	0.00000	5609.66700
6.72010	0.00000	5609.66700
6.72396	0.00000	5609.66700
6.72779	0.00000	5618.40600
6.73163	0.00000	5618.40600
6.73546	0.00000	5618.40600
6.73930	0.00000	5618.40600
6.74313	0.00000	5618.40600
6.74697	0.00000	5618.40600
6.75081	0.00000	5618.40600
6.75464	0.00000	5607.43500
6.75848	0.00000	5607.43500
6.76233	0.00000	5607.43500
6.76616	0.00000	5607.43500
6.77000	0.00000	5607.43500
6.77384	0.00000	5607.43500
6.77767	0.00000	5607.43500
6.78151	0.00000	5616.20700
6.78537	0.00000	5616.20700
6.78921	0.00000	5616.20700
6.79305	0.00000	5616.20700
6.79689	0.00000	5616.20700
6.80072	0.00000	5616.20700
6.80456	0.00000	5616.20700
6.80839	0.00000	5616.20700
6.81224	0.00000	5607.51700
6.81608	0.00000	5607.51700
6.81992	0.00000	5607.51700
6.82375	0.00000	5607.51700
6.82759	0.00000	5607.51700
6.83140	0.00000	5607.51700
6.83524	0.00000	5607.51700
6.83907	0.00000	5618.39800
6.84291	0.00000	5618.39800
6.84675	0.00000	5618.39800
6.85059	0.00000	5618.39800
6.85442	0.00000	5618.39800
6.85826	0.00000	5618.39800
6.86210	0.00000	5618.39800
6.86593	0.00000	5616.20700
6.86977	0.00000	5616.20700
6.87361	0.00000	5616.20700
6.87746	0.00000	5616.20700
6.88129	0.00000	5616.20700
6.88514	0.00000	5616.20700
6.88898	0.00000	5616.20700
6.89282	0.00000	5609.61300
6.89667	0.00000	5609.61300
6.90050	0.00000	5609.61300
6.90434	0.00000	5609.61300
6.90819	0.00000	5609.61300
6.91202	0.00000	5609.61300
6.91586	0.00000	5609.61300
6.91969	0.00000	5609.61300
6.92352	0.00000	5609.68500
6.92736	0.00000	5609.68500
6.93121	0.00000	5609.68500
6.93505	0.00000	5609.68500
6.93888	0.00000	5609.68500
6.94272	0.00000	5609.68500
6.94656	0.00000	5609.68500
6.95039	0.00000	5611.82600
6.95423	0.00000	5611.82600
6.95807	0.00000	5611.82600
6.96191	0.00000	5611.82600
6.96575	0.00000	5611.82600
6.96959	0.00000	5611.82600
6.97344	0.00000	5611.82600
6.97727	0.00000	5616.20700
6.98110	0.00000	5616.20700
6.98494	0.00000	5616.20700
6.98877	0.00000	5616.20700
6.99261	0.00000	5616.20700
6.99646	0.00000	5616.20700
7.00030	0.00000	5616.20700
7.00414	0.00000	5609.63100
7.00799	0.00000	5609.63100
7.01184	0.00000	5609.63100
7.01568	0.00000	5609.63100
7.01952	0.00000	5609.63100
7.02335	0.00000	5609.63100
7.02719	0.00000	5609.63100
7.03104	0.00000	5614.00900
7.03488	0.00000	5614.00900
7.03872	0.00000	5614.00900
7.04255	0.00000	5614.00900
7.04639	0.00000	5614.00900
7.05022	0.00000	5614.00900
7.05405	0.00000	5614.00900
7.05791	0.00000	5614.00900
7.06174	0.00000	5620.60900
7.06557	0.00000	5620.60900
7.06941	0.00000	5620.60900
7.07326	0.00000	5620.60900
7.07709	0.00000	5620.60900
7.08093	0.00000	5620.60900
7.08476	0.00000	5620.60900
7.08859	0.00000	5614.00900
7.09243	0.00000	5614.00900
7.09626	0.00000	5614.00900
7.10010	0.00000	5614.00900
7.10394	0.00000	5614.00900
7.10778	0.00000	5614.00900
7.11162	0.00000	5614.00900
7.11545	0.00000	5613.99600
7.11929	0.00000	5613.99600
7.12311	0.00000	5613.99600
7.12696	0.00000	5613.99600
7.13080	0.00000	5613.99600
7.13463	0.00000	5613.99600
7.13847	0.00000	5613.99600
7.14230	0.00000	5611.81100
7.14614	0.00000	5611.81100
7.14998	0.00000	5611.81100
7.15381	0.00000	5611.81100
7.15765	0.00000	5611.81100
7.16150	0.00000	5611.81100
7.16533	0.00000	5611.81100
7.16918	0.00000	5611.81100
7.17302	0.00000	5614.04800
7.17685	0.00000	5614.04800
7.18070	0.00000	5614.04800
7.18453	0.00000	5614.04800
7.18838	0.00000	5614.04800
7.19221	0.00000	5614.04800
7.19605	0.00000	5614.04800
7.19989	0.00000	5609.63100
7.20372	0.00000	5609.63100
7.20755	0.00000	5609.63100
7.21138	0.00000	5609.63100
7.21522	0.00000	5609.63100
7.21907	0.00000	5609.63100
7.22291	0.00000	5609.63100
7.22674	0.00000	5616.20700
7.23058	0.00000	5616.20700
7.23442	0.00000	5616.20700
7.23826	0.00000	5616.20700
7.24211	0.00000	5616.20700
7.24595	0.00000	5616.20700
7.24979	0.00000	5616.20700
7.25362	0.00000	5618.40600
7.25747	0.00000	5618.40600
7.26130	0.00000	5618.40600
7.26513	0.00000	5618.40600
7.26897	0.00000	5618.40600
7.27281	0.00000	5618.40600
7.27664	0.00000	5618.40600
7.28048	0.00000	5618.40600
7.28433	0.00000	5614.07300
7.28816	0.00000	5614.07300
7.29200	0.00000	5614.07300
7.29584	0.00000	5614.07300
7.29969	0.00000	5614.07300
7.30353	0.00000	5614.07300
7.30736	0.00000	5614.07300
7.31120	0.00000	5614.02200
7.31505	0.00000	5614.02200
7.31888	0.00000	5614.02200
7.32272	0.00000	5614.02200
7.32656	0.00000	5614.02200
7.33041	0.00000	5614.02200
7.33425	0.00000	5614.02200
7.33810	0.00000	5614.02200
7.34193	0.00000	5614.02200
7.34577	0.00000	5614.02200
7.34961	0.00000	5614.02200
7.35344	0.00000	5614.02200
7.35727	0.00000	5614.02200
7.36111	0.00000	5614.02200
7.36494	0.00000	5614.00900
7.36880	0.00000	5614.00900
7.37263	0.00000	5614.00900
7.37646	0.00000	5614.00900
7.38030	0.00000	5614.00900
7.38413	0.00000	5614.00900
7.38796	0.00000	5614.00900
7.39180	0.00000	5614.00900
7.39563	0.00000	5611.84200
7.39947	0.00000	5611.84200
7.40330	0.00000	5611.84200
7.40713	0.00000	5611.84200
7.41097	0.00000	5611.84200
7.41481	0.00000	5611.84200
7.41864	0.00000	5611.84200
7.42248	0.00000	5616.20700
7.42631	0.00000	5616.20700
7.43015	0.00000	5616.20700
7.43398	0.00000	5616.20700
7.43784	0.00000	5616.20700
7.44167	0.00000	5616.20700
7.44551	0.00000	5616.20700
7.44934	0.00000	5616.20700
7.45319	0.00000	5616.20700
7.45703	0.00000	5616.20700
7.46087	0.00000	5616.20700
7.46471	0.00000	5616.20700
7.46856	0.00000	5616.20700
7.47240	0.00000	5616.20700
7.47624	0.00000	5618.40600
7.48007	0.00000	5618.40600
7.48393	0.00000	5618.40600
7.48777	0.00000	5618.40600
7.49162	0.00000	5618.40600
7.49545	0.00000	5618.40600
7.49929	0.00000	5618.40600
7.50312	0.00000	5611.82600
7.50695	0.00000	5611.82600
7.51079	0.00000	5611.82600
7.51464	0.00000	5611.82600
7.51847	0.00000	5611.82600
7.52231	0.00000	5611.82600
7.52615	0.00000	5611.82600
7.53000	0.00000	5611.82600
7.53384	0.00000	5611.85700
7.53767	0.00000	5611.85700
7.54151	0.00000	5611.85700
7.54536	0.00000	5611.85700
7.54919	0.00000	5611.85700
7.55303	0.00000	5611.85700
7.55687	0.00000	5611.85700
7.56072	0.00000	5611.82600
7.56455	0.00000	5611.82600
7.56839	0.00000	5611.82600
7.57223	0.00000	5611.82600
7.57608	0.00000	5611.82600
7.57992	0.00000	5611.82600
7.58376	0.00000	5611.82600
7.58760	0.00000	5611.82600
7.59140	0.00000	5611.82600
7.59524	0.00000	5611.82600
7.59907	0.00000	5611.82600
7.60291	0.00000	5611.82600
7.60674	0.00000	5611.82600
7.61058	0.00000	5611.82600
7.61442	0.00000	5614.00900
7.61828	0.00000	5614.00900
7.62211	0.00000	5614.00900
7.62597	0.00000	5614.00900
7.62981	0.00000	5614.00900
7.63364	0.00000	5614.00900
7.63748	0.00000	5614.00900
7.64133	0.00000	5614.00900
7.64515	0.00000	5616.24800
7.64899	0.00000	5616.24800
7.65283	0.00000	5616.24800
7.65667	0.00000	5616.24800
7.66050	0.00000	5616.24800
7.66434	0.00000	5616.24800
7.66817	0.00000	5616.24800
7.67201	0.00000	5616.20700
7.67584	0.00000	5616.20700
7.67968	0.00000	5616.20700
7.68352	0.00000	5616.20700
7.68736	0.00000	5616.20700
7.69120	0.00000	5616.20700
7.69503	0.00000	5616.20700
7.69887	0.00000	5618.41300
7.70271	0.00000	5618.41300
7.70655	0.00000	5618.41300
7.71039	0.00000	5618.41300
7.71424	0.00000	5618.41300
7.71808	0.00000	5618.41300
7.72191	0.00000	5618.41300
7.72575	0.00000	5616.20700
7.72959	0.00000	5616.20700
7.73343	0.00000	5616.20700
7.73726	0.00000	5616.20700
7.74110	0.00000	5616.20700
7.74494	0.00000	5616.20700
7.74878	0.00000	5616.20700
7.75261	0.00000	5616.20700
7.75644	0.00000	5614.06000
7.76027	0.00000	5614.06000
7.76412	0.00000	5614.06000
7.76795	0.00000	5614.06000
7.77179	0.00000	5614.06000
7.77564	0.00000	5614.06000
7.77948	0.00000	5614.06000
7.78333	0.00000	5616.21800
7.78716	0.00000	5616.21800
7.79100	0.00000	5616.21800
7.79484	0.00000	5616.21800
7.79867	0.00000	5616.21800
7.80251	0.00000	5616.21800
7.80635	0.00000	5616.21800
7.81020	0.00000	5607.43500
7.81403	0.00000	5607.43500
7.81787	0.00000	5607.43500
7.82171	0.00000	5607.43500
7.82556	0.00000	5607.43500
7.82940	0.00000	5607.43500
7.83323	0.00000	5607.43500
7.83706	0.00000	5614.02200
7.84090	0.00000	5614.02200
7.84473	0.00000	5614.02200
7.84856	0.00000	5614.02200
7.85240	0.00000	5614.02200
7.85624	0.00000	5614.02200
7.86007	0.00000	5614.02200
7.86391	0.00000	5614.02200
7.86773	0.00000	5614.02200
7.87157	0.00000	5614.02200
7.87540	0.00000	5614.02200
7.87924	0.00000	5614.02200
7.88307	0.00000	5614.02200
7.88691	0.00000	5614.02200
7.89075	0.00000	5614.02200
7.89458	0.00000	5609.63100
7.89842	0.00000	5609.63100
7.90227	0.00000	5609.63100
7.90610	0.00000	5609.63100
7.90995	0.00000	5609.63100
7.91379	0.00000	5609.63100
7.91763	0.00000	5609.63100
7.92146	0.00000	5616.21800
7.92530	0.00000	5616.21800
7.92914	0.00000	5616.21800
7.93299	0.00000	5616.21800
7.93683	0.00000	5616.21800
7.94067	0.00000	5616.21800
7.94450	0.00000	5616.21800
7.94835	0.00000	5611.82600
7.95219	0.00000	5611.82600
7.95602	0.00000	5611.82600
7.95986	0.00000	5611.82600
7.96369	0.00000	5611.82600
7.96754	0.00000	5611.82600
7.97140	0.00000	5611.82600
7.97523	0.00000	5614.02200
7.97905	0.00000	5614.02200
7.98289	0.00000	5614.02200
7.98675	0.00000	5614.02200
7.99059	0.00000	5614.02200
7.99444	0.00000	5614.02200
7.99828	0.00000	5614.02200
8.00212	0.00000	5614.02200
8.00596	0.00000	5614.04800
8.00979	0.00000	5614.04800
8.01363	0.00000	5614.04800
8.01747	0.00000	5614.04800
8.02131	0.00000	5614.04800
8.02514	0.00000	5614.04800
8.02898	0.00000	5614.04800
8.03284	0.00000	5614.02200
8.03668	0.00000	5614.02200
8.04052	0.00000	5614.02200
8.04435	0.00000	5614.02200
8.04820	0.00000	5614.02200
8.05204	0.00000	5614.02200
8.05588	0.00000	5614.02200
8.05972	0.00000	5616.21800
8.06356	0.00000	5616.21800
8.06740	0.00000	5616.21800
8.07124	0.00000	5616.21800
8.07507	0.00000	5616.21800
8.07891	0.00000	5616.21800
8.08275	0.00000	5616.21800
8.08658	0.00000	5616.20700
8.09043	0.00000	5616.20700
8.09427	0.00000	5616.20700
8.09811	0.00000	5616.20700
8.10196	0.00000	5616.20700
8.10579	0.00000	5616.20700
8.10963	0.00000	5616.20700
8.11347	0.00000	5616.20700
8.11730	0.00000	5611.90300
8.12114	0.00000	5611.90300
8.12499	0.00000	5611.90300
8.12883	0.00000	5611.90300
8.13267	0.00000	5611.90300
8.13650	0.00000	5611.90300
8.14035	0.00000	5611.90300
8.14419	0.00000	5611.84200
8.14802	0.00000	5611.84200
8.15186	0.00000	5611.84200
8.15572	0.00000	5611.84200
8.15956	0.00000	5611.84200
8.16340	0.00000	5611.84200
8.16724	0.00000	5611.84200
8.17108	0.00000	5616.21800
8.17491	0.00000	5616.21800
8.17877	0.00000	5616.21800
8.18261	0.00000	5616.21800
8.18645	0.00000	5616.21800
8.19028	0.00000	5616.21800
8.19413	0.00000	5616.21800
8.19796	0.00000	5620.60900
8.20183	0.00000	5620.60900
8.20566	0.00000	5620.60900
8.20950	0.00000	5620.60900
8.21334	0.00000	5620.60900
8.21717	0.00000	5620.60900
8.22100	0.00000	5620.60900
8.22485	0.00000	5620.60900
8.22869	0.00000	5616.23800
8.23253	0.00000	5616.23800
8.23636	0.00000	5616.23800
8.24020	0.00000	5616.23800
8.24403	0.00000	5616.23800
8.24788	0.00000	5616.23800
8.25172	0.00000	5616.23800
8.25557	0.00000	5611.82600
8.25940	0.00000	5611.82600
8.26325	0.00000	5611.82600
8.26710	0.00000	5611.82600
8.27098	0.00000	5611.82600
8.27483	0.00000	5611.82600
8.27869	0.00000	5611.82600
8.28254	0.00000	5616.21800
8.28640	0.00000	5616.21800
8.29026	0.00000	5616.21800
8.29409	0.00000	5616.21800
8.29793	0.00000	5616.21800
8.30177	0.00000	5616.21800
8.30561	0.00000	5616.21800
8.30944	0.00000	5618.40600
8.31328	0.00000	5618.40600
8.31712	0.00000	5618.40600
8.32096	0.00000	5618.40600
8.32479	0.00000	5618.40600
8.32863	0.00000	5618.40600
8.33247	0.00000	5618.40600
8.33632	0.00000	5618.40600
8.34015	0.00000	5618.40600
8.34399	0.00000	5618.40600
8.34784	0.00000	5618.40600
8.35167	0.00000	5618.40600
8.35551	0.00000	5618.40600
8.35935	0.00000	5618.40600
8.36318	0.00000	5618.40600
8.36702	0.00000	5616.23800
8.37087	0.00000	5616.23800
8.37471	0.00000	5616.23800
8.37856	0.00000	5616.23800
8.38240	0.00000	5616.23800
8.38623	0.00000	5616.23800
8.39007	0.00000	5616.23800
8.39390	0.00000	5618.40600
8.39774	0.00000	5618.40600
8.40158	0.00000	5618.40600
8.40541	0.00000	5618.40600
8.40925	0.00000	5618.40600
8.41309	0.00000	5618.40600
8.41692	0.00000	5618.40600
8.42076	0.00000	5611.82600
8.42460	0.00000	5611.82600
8.42844	0.00000	5611.82600
8.43228	0.00000	5611.82600
8.43612	0.00000	5611.82600
8.43996	0.00000	5611.82600
8.44379	0.00000	5611.82600
8.44763	0.00000	5611.82600
8.45150	0.00000	5611.82600
8.45534	0.00000	5611.82600
8.45917	0.00000	5611.82600
8.46301	0.00000	5611.82600
8.46685	0.00000	5611.82600
8.47070	0.00000	5611.82600
8.47454	0.00000	5611.82600
8.47837	0.00000	5609.72000
8.48221	0.00000	5609.72000
8.48605	0.00000	5609.72000
8.48988	0.00000	5609.72000
8.49372	0.00000	5609.72000
8.49755	0.00000	5609.72000
8.50139	0.00000	5609.72000
8.50523	0.00000	5614.02200
8.50906	0.00000	5614.02200
8.51291	0.00000	5614.02200
8.51674	0.00000	5614.02200
8.52058	0.00000	5614.02200
8.52442	0.00000	5614.02200
8.52824	0.00000	5614.02200
8.53208	0.00000	5616.20700
8.53592	0.00000	5616.20700
8.53976	0.00000	5616.20700
8.54359	0.00000	5616.20700
8.54740	0.00000	5616.20700
8.55124	0.00000	5616.20700
8.55509	0.00000	5616.20700
8.55893	0.00000	5620.60400
8.56277	0.00000	5620.60400
8.56661	0.00000	5620.60400
8.57047	0.00000	5620.60400
8.57430	0.00000	5620.60400
8.57814	0.00000	5620.60400
8.58198	0.00000	5620.60400
8.58582	0.00000	5620.60400
8.58966	0.00000	5616.24800
8.59350	0.00000	5616.24800
8.59734	0.00000	5616.24800
8.60119	0.00000	5616.24800
8.60503	0.00000	5616.24800
8.60888	0.00000	5616.24800
8.61272	0.00000	5616.24800
8.61655	0.00000	5616.21800
8.62039	0.00000	5616.21800
8.62424	0.00000	5616.21800
8.62808	0.00000	5616.21800
8.63192	0.00000	5616.21800
8.63576	0.00000	5616.21800
8.63959	0.00000	5616.21800
8.64340	0.00000	5616.21800
8.64726	0.00000	5616.21800
8.65110	0.00000	5616.21800
8.65493	0.00000	5616.21800
8.65876	0.00000	5616.21800
8.66260	0.00000	5616.21800
8.66643	0.00000	5616.21800
8.67027	0.00000	5616.21800
8.67412	0.00000	5616.21800
8.67797	0.00000	5616.21800
8.68180	0.00000	5616.21800
8.68564	0.00000	5616.21800
8.68948	0.00000	5616.21800
8.69332	0.00000	5616.21800
8.69715	0.00000	5616.21800
8.70098	0.00000	5618.42800
8.70481	0.00000	5618.42800
8.70865	0.00000	5618.42800
8.71248	0.00000	5618.42800
8.71631	0.00000	5618.42800
8.72015	0.00000	5618.42800
8.72400	0.00000	5618.42800
8.72783	0.00000	5620.60900
8.73167	0.00000	5620.60900
8.73550	0.00000	5620.60900
8.73934	0.00000	5620.60900
8.74317	0.00000	5620.60900
8.74701	0.00000	5620.60900
8.75085	0.00000	5620.60900
8.75470	0.00000	5620.60900
8.75853	0.00000	5620.60900
8.76237	0.00000	5620.60900
8.76620	0.00000	5620.60900
8.77004	0.00000	5620.60900
8.77387	0.00000	5620.60900
8.77771	0.00000	5620.60900
8.78154	0.00000	5618.41300
8.78542	0.00000	5618.41300
8.78928	0.00000	5618.41300
8.79311	0.00000	5618.41300
8.79695	0.00000	5618.41300
8.80079	0.00000	5618.41300
8.80462	0.00000	5618.41300
8.80846	0.00000	5618.41300
8.81229	0.00000	5618.41300
8.81614	0.00000	5618.41300
8.81997	0.00000	5618.41300
8.82381	0.00000	5618.41300
8.82765	0.00000	5618.41300
8.83150	0.00000	5618.41300
8.83534	0.00000	5618.41300
8.83918	0.00000	5622.80600
8.84301	0.00000	5622.80600
8.84686	0.00000	5622.80600
8.85069	0.00000	5622.80600
8.85453	0.00000	5622.80600
8.85837	0.00000	5622.80600
8.86220	0.00000	5622.80600
8.86604	0.00000	5611.84200
8.86988	0.00000	5611.84200
8.87371	0.00000	5611.84200
8.87755	0.00000	5611.84200
8.88139	0.00000	5611.84200
8.88521	0.00000	5611.84200
8.88905	0.00000	5611.84200
8.89289	0.00000	5618.42100
8.89672	0.00000	5618.42100
8.90056	0.00000	5618.42100
8.90440	0.00000	5618.42100
8.90823	0.00000	5618.42100
8.91208	0.00000	5618.42100
8.91591	0.00000	5618.42100
8.91975	0.00000	5618.42100
8.92359	0.00000	5618.42100
8.92740	0.00000	5618.42100
8.93123	0.00000	5618.42100
8.93507	0.00000	5618.42100
8.93893	0.00000	5618.42100
8.94276	0.00000	5618.42100
8.94660	0.00000	5618.42100
8.95044	0.00000	5614.06000
8.95428	0.00000	5614.06000
8.95812	0.00000	5614.06000
8.96195	0.00000	5614.06000
8.96578	0.00000	5614.06000
8.96962	0.00000	5614.06000
8.97345	0.00000	5614.06000
8.97729	0.00000	5618.42100
8.98112	0.00000	5618.42100
8.98496	0.00000	5618.42100
8.98881	0.00000	5618.42100
8.99264	0.00000	5618.42100
8.99649	0.00000	5618.42100
9.00034	0.00000	5618.42100
9.00417	0.00000	5618.42100
9.00801	0.00000	5618.42100
9.01185	0.00000	5618.42100
9.01569	0.00000	5618.42100
9.01953	0.00000	5618.42100
9.02337	0.00000	5618.42100
9.02721	0.00000	5618.42100
9.03104	0.00000	5620.61400
9.03487	0.00000	5620.61400
9.03870	0.00000	5620.61400
9.04255	0.00000	5620.61400
9.04639	0.00000	5620.61400
9.05023	0.00000	5620.61400
9.05408	0.00000	5620.61400
9.05793	0.00000	5620.61400
9.06177	0.00000	5622.81200
9.06562	0.00000	5622.81200
9.06945	0.00000	5622.81200
9.07329	0.00000	5622.81200
9.07713	0.00000	5622.81200
9.08098	0.00000	5622.81200
9.08481	0.00000	5622.81200
9.08865	0.00000	5618.41300
9.09249	0.00000	5618.41300
9.09634	0.00000	5618.41300
9.10017	0.00000	5618.41300
9.10401	0.00000	5618.41300
9.10785	0.00000	5618.41300
9.11170	0.00000	5618.41300
9.11553	0.00000	5622.80400
9.11938	0.00000	5622.80400
9.12322	0.00000	5622.80400
9.12706	0.00000	5622.80400
9.13090	0.00000	5622.80400
9.13475	0.00000	5622.80400
9.13859	0.00000	5622.80400
9.14243	0.00000	5616.21800
9.14629	0.00000	5616.21800
9.15014	0.00000	5616.21800
9.15398	0.00000	5616.21800
9.15782	0.00000	5616.21800
9.16166	0.00000	5616.21800
9.16550	0.00000	5616.21800
9.16934	0.00000	5616.21800
9.17317	0.00000	5620.63900
9.17701	0.00000	5620.63900
9.18085	0.00000	5620.63900
9.18471	0.00000	5620.63900
9.18854	0.00000	5620.63900
9.19238	0.00000	5620.63900
9.19622	0.00000	5620.63900
9.20006	0.00000	5616.22800
9.20390	0.00000	5616.22800
9.20774	0.00000	5616.22800
9.21157	0.00000	5616.22800
9.21540	0.00000	5616.22800
9.21924	0.00000	5616.22800
9.22307	0.00000	5616.22800
9.22692	0.00000	5618.42100
9.23075	0.00000	5618.42100
9.23459	0.00000	5618.42100
9.23842	0.00000	5618.42100
9.24227	0.00000	5618.42100
9.24611	0.00000	5618.42100
9.24995	0.00000	5618.42100
9.25378	0.00000	5618.42100
9.25765	0.00000	5618.42100
9.26151	0.00000	5618.42100
9.26535	0.00000	5618.42100
9.26919	0.00000	5618.42100
9.27302	0.00000	5618.42100
9.27686	0.00000	5618.42100
9.28070	0.00000	5618.42100
9.28457	0.00000	5618.45100
9.28841	0.00000	5618.45100
9.29225	0.00000	5618.45100
9.29609	0.00000	5618.45100
9.29992	0.00000	5618.45100
9.30377	0.00000	5618.45100
9.30760	0.00000	5618.45100
9.31140	0.00000	5616.21800
9.31523	0.00000	5616.21800
9.31907	0.00000	5616.21800
9.32291	0.00000	5616.21800
9.32676	0.00000	5616.21800
9.33059	0.00000	5616.21800
9.33443	0.00000	5616.21800
9.33827	0.00000	5607.41500
9.34212	0.00000	5607.41500
9.34595	0.00000	5607.41500
9.34980	0.00000	5607.41500
9.35364	0.00000	5607.41500
9.35749	0.00000	5607.41500
9.36133	0.00000	5607.41500
9.36516	0.00000	5614.00900
9.36903	0.00000	5614.00900
9.37287	0.00000	5614.00900
9.37671	0.00000	5614.00900
9.38055	0.00000	5614.00900
9.38439	0.00000	5614.00900
9.38823	0.00000	5614.00900
9.39206	0.00000	5614.00900
9.39589	0.00000	5611.85700
9.39972	0.00000	5611.85700
9.40356	0.00000	5611.85700
9.40740	0.00000	5611.85700
9.41124	0.00000	5611.85700
9.41507	0.00000	5611.85700
9.41892	0.00000	5611.85700
9.42275	0.00000	5616.21800
9.42659	0.00000	5616.21800
9.43042	0.00000	5616.21800
9.43426	0.00000	5616.21800
9.43810	0.00000	5616.21800
9.44195	0.00000	5616.21800
9.44578	0.00000	5616.21800
9.44962	0.00000	5618.41300
9.45347	0.00000	5618.41300
9.45733	0.00000	5618.41300
9.46115	0.00000	5618.41300
9.46498	0.00000	5618.41300
9.46883	0.00000	5618.41300
9.47269	0.00000	5618.41300
9.47652	0.00000	5614.03500
9.48035	0.00000	5614.03500
9.48419	0.00000	5614.03500
9.48804	0.00000	5614.03500
9.49188	0.00000	5614.03500
9.49573	0.00000	5614.03500
9.49957	0.00000	5614.03500
9.50340	0.00000	5620.60900
9.50724	0.00000	5620.60900
9.51108	0.00000	5620.60900
9.51492	0.00000	5620.60900
9.51876	0.00000	5620.60900
9.52260	0.00000	5620.60900
9.52645	0.00000	5620.60900
9.53029	0.00000	5620.60900
9.53412	0.00000	5618.42800
9.53796	0.00000	5618.42800
9.54180	0.00000	5618.42800
9.54564	0.00000	5618.42800
9.54949	0.00000	5618.42800
9.55333	0.00000	5618.42800
9.55717	0.00000	5618.42800
9.56101	0.00000	5618.41300
9.56485	0.00000	5618.41300
9.56869	0.00000	5618.41300
9.57253	0.00000	5618.41300
9.57637	0.00000	5618.41300
9.58021	0.00000	5618.41300
9.58405	0.00000	5618.41300
9.58789	0.00000	5620.60900
9.59173	0.00000	5620.60900
9.59557	0.00000	5620.60900
9.59940	0.00000	5620.60900
9.60325	0.00000	5620.60900
9.60709	0.00000	5620.60900
9.61093	0.00000	5620.60900
9.61477	0.00000	5620.60900
9.61862	0.00000	5620.60900
9.62246	0.00000	5620.60900
9.62630	0.00000	5620.60900
9.63014	0.00000	5620.60900
9.63399	0.00000	5620.60900
9.63783	0.00000	5620.60900
9.64167	0.00000	5620.60900
9.64550	0.00000	5611.88800
9.64934	0.00000	5611.88800
9.65318	0.00000	5611.88800
9.65702	0.00000	5611.88800
9.66086	0.00000	5611.88800
9.66469	0.00000	5611.88800
9.66853	0.00000	5611.88800
9.67238	0.00000	5620.60900
9.67621	0.00000	5620.60900
9.68004	0.00000	5620.60900
9.68388	0.00000	5620.60900
9.68773	0.00000	5620.60900
9.69156	0.00000	5620.60900
9.69540	0.00000	5620.60900
9.69925	0.00000	5616.22800
9.70310	0.00000	5616.22800
9.70693	0.00000	5616.22800
9.71076	0.00000	5616.22800
9.71460	0.00000	5616.22800
9.71846	0.00000	5616.22800
9.72230	0.00000	5616.22800
9.72614	0.00000	5618.42100
9.73000	0.00000	5618.42100
9.73384	0.00000	5618.42100
9.73767	0.00000	5618.42100
9.74150	0.00000	5618.42100
9.74534	0.00000	5618.42100
9.74918	0.00000	5618.42100
9.75302	0.00000	5618.42100
9.75686	0.00000	5616.26900
9.76070	0.00000	5616.26900
9.76454	0.00000	5616.26900
9.76838	0.00000	5616.26900
9.77221	0.00000	5616.26900
9.77604	0.00000	5616.26900
9.77989	0.00000	5616.26900
9.78373	0.00000	5622.80400
9.78760	0.00000	5622.80400
9.79140	0.00000	5622.80400
9.79526	0.00000	5622.80400
9.79910	0.00000	5622.80400
9.80295	0.00000	5622.80400
9.80679	0.00000	5622.80400
9.81062	0.00000	5622.80400
9.81447	0.00000	5622.80400
9.81831	0.00000	5622.80400
9.82214	0.00000	5622.80400
9.82599	0.00000	5622.80400
9.82983	0.00000	5622.80400
9.83367	0.00000	5622.80400
9.83751	0.00000	5622.80400
9.84136	0.00000	5622.80400
9.84520	0.00000	5622.80400
9.84904	0.00000	5622.80400
9.85288	0.00000	5622.80400
9.85671	0.00000	5622.80400
9.86055	0.00000	5622.80400
9.86440	0.00000	5622.80400
9.86824	0.00000	5616.25900
9.87207	0.00000	5616.25900
9.87591	0.00000	5616.25900
9.87974	0.00000	5616.25900
9.88357	0.00000	5616.25900
9.88740	0.00000	5616.25900
9.89124	0.00000	5616.25900
9.89508	0.00000	5616.22800
9.89892	0.00000	5616.22800
9.90278	0.00000	5616.22800
9.90662	0.00000	5616.22800
9.91046	0.00000	5616.22800
9.91430	0.00000	5616.22800
9.91815	0.00000	5616.22800
9.92199	0.00000	5620.60900
9.92582	0.00000	5620.60900
9.92966	0.00000	5620.60900
9.93351	0.00000	5620.60900
9.93734	0.00000	5620.60900
9.94118	0.00000	5620.60900
9.94502	0.00000	5620.60900
9.94887	0.00000	5625.00000
9.95270	0.00000	5625.00000
9.95654	0.00000	5625.00000
9.96038	0.00000	5625.00000
9.96424	0.00000	5625.00000
9.96807	0.00000	5625.00000
9.97192	0.00000	5625.00000
9.97576	0.00000	5625.00000
9.97959	0.00000	5620.62400
9.98340	0.00000	5620.62400
9.98724	0.00000	5620.62400
9.99107	0.00000	5620.62400
9.99490	0.00000	5620.62400
9.99874	0.00000	5620.62400
