Time (s)   Thrust (N)   RPM
0.00031	0.00000	4945.34500
0.00420	0.00000	4945.34500
0.00806	0.00000	4945.34500
0.01191	0.00000	4945.34500
0.01575	0.00000	4948.50800
0.01959	0.00000	4948.50800
0.02346	0.00000	4948.50800
0.02735	0.00000	4948.50800
0.03120	0.00000	4948.50800
0.03504	0.00000	4948.50800
0.03887	0.00000	4868.56200
0.04272	0.00000	4868.56200
0.04658	0.00000	4868.56200
0.05041	0.00000	4868.56200
0.05424	0.00000	4868.56200
0.05807	0.00000	4868.56200
0.06190	0.00000	4679.10400
0.06575	0.00000	4679.10400
0.06959	0.00000	4679.10400
0.07343	0.00000	4679.10400
0.07726	0.00000	4679.10400
0.08111	0.00000	4519.82800
0.08493	0.00000	4519.82800
0.08877	0.00000	4519.82800
0.09260	0.00000	4519.82800
0.09642	0.00000	4519.82800
0.10025	0.00000	4519.82800
0.10407	0.00000	4367.05100
0.10790	0.00000	4367.05100
0.11172	0.00000	4367.05100
0.11555	0.00000	4367.05100
0.11937	0.00000	4367.05100
0.12320	0.00000	4248.76800
0.12702	0.00000	4248.76800
0.13085	0.00000	4248.76800
0.13469	0.00000	4248.76800
0.13852	0.00000	4248.76800
0.14235	0.00000	4160.74400
0.14618	0.00000	4160.74400
0.15001	0.00000	4160.74400
0.15384	0.00000	4160.74400
0.15767	0.00000	4160.74400
0.16150	0.00000	4075.80900
0.16533	0.00000	4075.80900
0.16916	0.00000	4075.80900
0.17299	0.00000	4075.80900
0.17681	0.00000	4075.80900
0.18064	0.00000	3995.68900
0.18446	0.00000	3995.68900
0.18829	0.00000	3995.68900
0.19211	0.00000	3995.68900
0.19594	0.00000	3995.68900
0.19977	0.00000	3939.79000
0.20359	0.00000	3939.79000
0.20741	0.00000	3939.79000
0.21124	0.00000	3939.79000
0.21506	0.00000	3939.79000
0.21888	0.00000	3888.88900
0.22271	0.00000	3888.88900
0.22653	0.00000	3888.88900
0.23036	0.00000	3888.88900
0.23418	0.00000	3844.08600
0.23801	0.00000	3844.08600
0.24183	0.00000	3844.08600
0.24566	0.00000	3844.08600
0.24949	0.00000	3844.08600
0.25332	0.00000	3804.05400
0.25714	0.00000	3804.05400
0.26097	0.00000	3804.05400
0.26480	0.00000	3804.05400
0.26862	0.00000	3804.05400
0.27245	0.00000	3763.56200
0.27632	0.00000	3763.56200
0.28017	0.00000	3763.56200
0.28400	0.00000	3763.56200
0.28784	0.00000	3763.56200
0.29166	0.00000	3732.95400
0.29551	0.00000	3732.95400
0.29934	0.00000	3732.95400
0.30317	0.00000	3732.95400
0.30701	0.00000	3701.74600
0.31084	0.00000	3701.74600
0.31468	0.00000	3701.74600
0.31859	0.00000	3701.74600
0.32246	0.00000	3701.74600
0.32630	0.00000	3674.31100
0.33013	0.00000	3674.31100
0.33396	0.00000	3674.31100
0.33779	0.00000	3674.31100
0.34162	0.00000	3674.31100
0.34544	0.00000	3649.67700
0.34928	0.00000	3649.67700
0.35308	0.00000	3649.67700
0.35691	0.00000	3649.67700
0.36074	0.00000	3634.99000
0.36457	0.00000	3634.99000
0.36840	0.00000	3634.99000
0.37223	0.00000	3634.99000
0.37606	0.00000	3634.99000
0.37989	0.00000	3621.52700
0.38373	0.00000	3621.52700
0.38756	0.00000	3621.52700
0.39141	0.00000	3621.52700
0.39524	0.00000	3606.30800
0.39908	0.00000	3606.30800
0.40291	0.00000	3606.30800
0.40675	0.00000	3606.30800
0.41057	0.00000	3606.30800
0.41440	0.00000	3592.28900
0.41823	0.00000	3592.28900
0.42207	0.00000	3592.28900
0.42589	0.00000	3592.28900
0.42972	0.00000	3592.28900
0.43354	0.00000	3578.27100
0.43738	0.00000	3578.27100
0.44121	0.00000	3578.27100
0.44504	0.00000	3578.27100
0.44888	0.00000	3580.50800
0.45272	0.00000	3580.50800
0.45655	0.00000	3580.50800
0.46038	0.00000	3580.50800
0.46420	0.00000	3580.50800
0.46802	0.00000	3560.39300
0.47185	0.00000	3560.39300
0.47568	0.00000	3560.39300
0.47951	0.00000	3560.39300
0.48333	0.00000	3555.42400
0.48716	0.00000	3555.42400
0.49099	0.00000	3555.42400
0.49482	0.00000	3555.42400
0.49866	0.00000	3555.42400
0.50248	0.00000	3538.93000
0.50631	0.00000	3538.93000
0.51015	0.00000	3538.93000
0.51398	0.00000	3538.93000
0.51781	0.00000	3537.33400
0.52164	0.00000	3537.33400
0.52546	0.00000	3537.33400
0.52929	0.00000	3537.33400
0.53307	0.00000	3537.33400
0.53690	0.00000	3538.53300
0.54073	0.00000	3538.53300
0.54455	0.00000	3538.53300
0.54838	0.00000	3538.53300
0.55220	0.00000	3536.93200
0.55603	0.00000	3536.93200
0.55986	0.00000	3536.93200
0.56370	0.00000	3536.93200
0.56753	0.00000	3536.93200
0.57137	0.00000	3530.24500
0.57520	0.00000	3530.24500
0.57902	0.00000	3530.24500
0.58285	0.00000	3530.24500
0.58668	0.00000	3522.72700
0.59052	0.00000	3522.72700
0.59434	0.00000	3522.72700
0.59817	0.00000	3522.72700
0.60200	0.00000	3522.72700
0.60582	0.00000	3515.62500
0.60966	0.00000	3515.62500
0.61349	0.00000	3515.62500
0.61732	0.00000	3515.62500
0.62115	0.00000	3515.62500
0.62497	0.00000	3512.52300
0.62880	0.00000	3512.52300
0.63262	0.00000	3512.52300
0.63645	0.00000	3512.52300
0.64028	0.00000	3518.29800
0.64409	0.00000	3518.29800
0.64792	0.00000	3518.29800
0.65175	0.00000	3518.29800
0.65557	0.00000	3518.29800
0.65940	0.00000	3501.89000
0.66322	0.00000	3501.89000
0.66705	0.00000	3501.89000
0.67087	0.00000	3501.89000
0.67469	0.00000	3514.28500
0.67852	0.00000	3514.28500
0.68235	0.00000	3514.28500
0.68618	0.00000	3514.28500
0.69002	0.00000	3514.28500
0.69385	0.00000	3505.43400
0.69768	0.00000	3505.43400
0.70150	0.00000	3505.43400
0.70532	0.00000	3505.43400
0.70916	0.00000	3500.00000
0.71298	0.00000	3500.00000
0.71681	0.00000	3500.00000
0.72063	0.00000	3500.00000
0.72445	0.00000	3500.00000
0.72828	0.00000	3501.42000
0.73210	0.00000	3501.42000
0.73592	0.00000	3501.42000
0.73975	0.00000	3501.42000
0.74358	0.00000	3499.52200
0.74740	0.00000	3499.52200
0.75123	0.00000	3499.52200
0.75505	0.00000	3499.52200
0.75888	0.00000	3499.52200
0.76271	0.00000	3491.25700
0.76653	0.00000	3491.25700
0.77035	0.00000	3491.25700
0.77419	0.00000	3491.25700
0.77800	0.00000	3495.94400
0.78183	0.00000	3495.94400
0.78564	0.00000	3495.94400
0.78947	0.00000	3495.94400
0.79329	0.00000	3495.94400
0.79707	0.00000	3487.21500
0.80090	0.00000	3487.21500
0.80473	0.00000	3487.21500
0.80855	0.00000	3487.21500
0.81237	0.00000	3488.78800
0.81619	0.00000	3488.78800
0.82002	0.00000	3488.78800
0.82384	0.00000	3488.78800
0.82766	0.00000	3488.78800
0.83149	0.00000	3483.66400
0.83532	0.00000	3483.66400
0.83915	0.00000	3483.66400
0.84298	0.00000	3483.66400
0.84680	0.00000	3488.78800
0.85063	0.00000	3488.78800
0.85446	0.00000	3488.78800
0.85829	0.00000	3488.78800
0.86212	0.00000	3488.78800
0.86594	0.00000	3487.21500
0.86977	0.00000	3487.21500
0.87361	0.00000	3487.21500
0.87743	0.00000	3487.21500
0.88126	0.00000	3488.78800
0.88507	0.00000	3488.78800
0.88890	0.00000	3488.78800
0.89273	0.00000	3488.78800
0.89656	0.00000	3488.78800
0.90038	0.00000	3493.83300
0.90420	0.00000	3493.83300
0.90803	0.00000	3493.83300
0.91185	0.00000	3493.83300
0.91568	0.00000	3488.78800
0.91950	0.00000	3488.78800
0.92333	0.00000	3488.78800
0.92715	0.00000	3488.78800
0.93097	0.00000	3488.78800
0.93480	0.00000	3486.71700
0.93863	0.00000	3486.71700
0.94245	0.00000	3486.71700
0.94627	0.00000	3486.71700
0.95009	0.00000	3485.21000
0.95392	0.00000	3485.21000
0.95775	0.00000	3485.21000
0.96157	0.00000	3485.21000
0.96539	0.00000	3485.21000
0.96922	0.00000	3487.21500
0.97305	0.00000	3487.21500
0.97689	0.00000	3487.21500
0.98072	0.00000	3487.21500
0.98455	0.00000	3488.78800
0.98838	0.00000	3488.78800
0.99220	0.00000	3488.78800
0.99603	0.00000	3488.78800
0.99986	0.00000	3488.78800
1.00369	0.00000	3487.21500
1.00751	0.00000	3487.21500
1.01133	0.00000	3487.21500
1.01516	0.00000	3487.21500
1.01898	0.00000	3491.87300
1.02281	0.00000	3491.87300
1.02664	0.00000	3491.87300
1.03046	0.00000	3491.87300
1.03429	0.00000	3491.87300
1.03812	0.00000	3486.71700
1.04195	0.00000	3486.71700
1.04579	0.00000	3486.71700
1.04962	0.00000	3486.71700
1.05344	0.00000	3481.63100
1.05727	0.00000	3481.63100
1.06107	0.00000	3481.63100
1.06490	0.00000	3481.63100
1.06873	0.00000	3481.63100
1.07256	0.00000	3486.71700
1.07638	0.00000	3486.71700
1.08020	0.00000	3486.71700
1.08404	0.00000	3486.71700
1.08787	0.00000	3481.63100
1.09168	0.00000	3481.63100
1.09551	0.00000	3481.63100
1.09933	0.00000	3481.63100
1.10316	0.00000	3481.63100
1.10699	0.00000	3487.21500
1.11082	0.00000	3487.21500
1.11465	0.00000	3487.21500
1.11848	0.00000	3487.21500
1.12226	0.00000	3491.87300
1.12609	0.00000	3491.87300
1.12992	0.00000	3491.87300
1.13374	0.00000	3491.87300
1.13757	0.00000	3491.87300
1.14139	0.00000	3486.71700
1.14521	0.00000	3486.71700
1.14904	0.00000	3486.71700
1.15286	0.00000	3486.71700
1.15669	0.00000	3485.21000
1.16053	0.00000	3485.21000
1.16437	0.00000	3485.21000
1.16819	0.00000	3485.21000
1.17201	0.00000	3485.21000
1.17584	0.00000	3486.71700
1.17966	0.00000	3486.71700
1.18348	0.00000	3486.71700
1.18731	0.00000	3486.71700
1.19114	0.00000	3478.05300
1.19497	0.00000	3478.05300
1.19880	0.00000	3478.05300
1.20262	0.00000	3478.05300
1.20646	0.00000	3478.05300
1.21028	0.00000	3486.71700
1.21410	0.00000	3486.71700
1.21793	0.00000	3486.71700
1.22176	0.00000	3486.71700
1.22558	0.00000	3485.21000
1.22941	0.00000	3485.21000
1.23324	0.00000	3485.21000
1.23706	0.00000	3485.21000
1.24089	0.00000	3485.21000
1.24471	0.00000	3489.78100
1.24854	0.00000	3489.78100
1.25236	0.00000	3489.78100
1.25618	0.00000	3489.78100
1.26001	0.00000	3488.28800
1.26383	0.00000	3488.28800
1.26765	0.00000	3488.28800
1.27147	0.00000	3488.28800
1.27530	0.00000	3488.28800
1.27913	0.00000	3482.65200
1.28295	0.00000	3482.65200
1.28678	0.00000	3482.65200
1.29060	0.00000	3482.65200
1.29443	0.00000	3481.63100
1.29826	0.00000	3481.63100
1.30211	0.00000	3481.63100
1.30594	0.00000	3481.63100
1.30978	0.00000	3481.63100
1.31362	0.00000	3489.78100
1.31744	0.00000	3489.78100
1.32126	0.00000	3489.78100
1.32507	0.00000	3489.78100
1.32890	0.00000	3488.28800
1.33274	0.00000	3488.28800
1.33658	0.00000	3488.28800
1.34040	0.00000	3488.28800
1.34422	0.00000	3488.28800
1.34804	0.00000	3482.65200
1.35187	0.00000	3482.65200
1.35569	0.00000	3482.65200
1.35951	0.00000	3482.65200
1.36333	0.00000	3478.05300
1.36717	0.00000	3478.05300
1.37100	0.00000	3478.05300
1.37482	0.00000	3478.05300
1.37864	0.00000	3478.05300
1.38246	0.00000	3479.08700
1.38629	0.00000	3479.08700
1.39012	0.00000	3479.08700
1.39395	0.00000	3479.08700
1.39777	0.00000	3488.28800
1.40160	0.00000	3488.28800
1.40542	0.00000	3488.28800
1.40924	0.00000	3488.28800
1.41307	0.00000	3488.28800
1.41689	0.00000	3489.78100
1.42072	0.00000	3489.78100
1.42454	0.00000	3489.78100
1.42838	0.00000	3489.78100
1.43220	0.00000	3485.21000
1.43603	0.00000	3485.21000
1.43986	0.00000	3485.21000
1.44368	0.00000	3485.21000
1.44750	0.00000	3485.21000
1.45133	0.00000	3482.65200
1.45516	0.00000	3482.65200
1.45899	0.00000	3482.65200
1.46281	0.00000	3482.65200
1.46663	0.00000	3481.11800
1.47048	0.00000	3481.11800
1.47431	0.00000	3481.11800
1.47813	0.00000	3481.11800
1.48196	0.00000	3481.11800
1.48578	0.00000	3486.21600
1.48960	0.00000	3486.21600
1.49342	0.00000	3486.21600
1.49724	0.00000	3486.21600
1.50106	0.00000	3491.87300
1.50489	0.00000	3491.87300
1.50871	0.00000	3491.87300
1.51254	0.00000	3491.87300
1.51637	0.00000	3491.87300
1.52019	0.00000	3492.36600
1.52402	0.00000	3492.36600
1.52784	0.00000	3492.36600
1.53167	0.00000	3492.36600
1.53549	0.00000	3488.28800
1.53931	0.00000	3488.28800
1.54313	0.00000	3488.28800
1.54695	0.00000	3488.28800
1.55078	0.00000	3488.28800
1.55460	0.00000	3485.71400
1.55842	0.00000	3485.71400
1.56224	0.00000	3485.71400
1.56606	0.00000	3485.71400
1.56988	0.00000	3488.78800
1.57370	0.00000	3488.78800
1.57753	0.00000	3488.78800
1.58136	0.00000	3488.78800
1.58518	0.00000	3488.78800
1.58901	0.00000	3488.78800
1.59283	0.00000	3488.78800
1.59666	0.00000	3488.78800
1.60048	0.00000	3488.78800
1.60431	0.00000	3491.87300
1.60813	0.00000	3491.87300
1.61195	0.00000	3491.87300
1.61578	0.00000	3491.87300
1.61961	0.00000	3491.87300
1.62343	0.00000	3482.14200
1.62726	0.00000	3482.14200
1.63108	0.00000	3482.14200
1.63490	0.00000	3482.14200
1.63873	0.00000	3484.70300
1.64255	0.00000	3484.70300
1.64638	0.00000	3484.70300
1.65020	0.00000	3484.70300
1.65402	0.00000	3484.70300
1.65783	0.00000	3485.21000
1.66165	0.00000	3485.21000
1.66547	0.00000	3485.21000
1.66930	0.00000	3485.21000
1.67313	0.00000	3491.87300
1.67697	0.00000	3491.87300
1.68079	0.00000	3491.87300
1.68462	0.00000	3491.87300
1.68844	0.00000	3491.87300
1.69225	0.00000	3482.14200
1.69608	0.00000	3482.14200
1.69990	0.00000	3482.14200
1.70372	0.00000	3482.14200
1.70755	0.00000	3491.87300
1.71136	0.00000	3491.87300
1.71519	0.00000	3491.87300
1.71902	0.00000	3491.87300
1.72283	0.00000	3491.87300
1.72666	0.00000	3484.70300
1.73048	0.00000	3484.70300
1.73431	0.00000	3484.70300
1.73814	0.00000	3484.70300
1.74195	0.00000	3478.05300
1.74577	0.00000	3478.05300
1.74960	0.00000	3478.05300
1.75344	0.00000	3478.05300
1.75726	0.00000	3478.05300
1.76108	0.00000	3485.21000
1.76490	0.00000	3485.21000
1.76872	0.00000	3485.21000
1.77255	0.00000	3485.21000
1.77637	0.00000	3478.05300
1.78019	0.00000	3478.05300
1.78401	0.00000	3478.05300
1.78783	0.00000	3478.05300
1.79165	0.00000	3478.05300
1.79548	0.00000	3478.57100
1.79930	0.00000	3478.57100
1.80312	0.00000	3478.57100
1.80695	0.00000	3478.57100
1.81077	0.00000	3485.21000
1.81460	0.00000	3485.21000
1.81842	0.00000	3485.21000
1.82224	0.00000	3485.21000
1.82606	0.00000	3485.21000
1.82989	0.00000	3481.63100
1.83372	0.00000	3481.63100
1.83754	0.00000	3481.63100
1.84137	0.00000	3481.63100
1.84519	0.00000	3488.78800
1.84901	0.00000	3488.78800
1.85283	0.00000	3488.78800
1.85666	0.00000	3488.78800
1.86048	0.00000	3488.78800
1.86430	0.00000	3488.78800
1.86813	0.00000	3488.78800
1.87195	0.00000	3488.78800
1.87578	0.00000	3488.78800
1.87961	0.00000	3481.63100
1.88343	0.00000	3481.63100
1.88727	0.00000	3481.63100
1.89109	0.00000	3481.63100
1.89491	0.00000	3481.63100
1.89874	0.00000	3485.21000
1.90257	0.00000	3485.21000
1.90639	0.00000	3485.21000
1.91021	0.00000	3485.21000
1.91403	0.00000	3485.21000
1.91785	0.00000	3485.21000
1.92168	0.00000	3485.21000
1.92550	0.00000	3485.21000
1.92933	0.00000	3485.21000
1.93316	0.00000	3485.21000
1.93698	0.00000	3485.21000
1.94081	0.00000	3485.21000
1.94464	0.00000	3485.21000
1.94846	0.00000	3488.78800
1.95228	0.00000	3488.78800
1.95611	0.00000	3488.78800
1.95993	0.00000	3488.78800
1.96376	0.00000	3488.78800
1.96758	0.00000	3485.21000
1.97141	0.00000	3485.21000
1.97523	0.00000	3485.21000
1.97906	0.00000	3485.21000
1.98289	0.00000	3492.36600
1.98671	0.00000	3492.36600
1.99053	0.00000	3492.36600
1.99436	0.00000	3492.36600
1.99819	0.00000	3492.36600
2.00201	0.00000	3488.78800
2.00583	0.00000	3488.78800
2.00965	0.00000	3488.78800
2.01348	0.00000	3488.78800
2.01732	0.00000	3488.78800
2.02113	0.00000	3485.71400
2.02496	0.00000	3485.71400
2.02878	0.00000	3485.71400
2.03260	0.00000	3485.71400
2.03643	0.00000	3491.87300
2.04025	0.00000	3491.87300
2.04408	0.00000	3491.87300
2.04790	0.00000	3491.87300
2.05173	0.00000	3491.87300
2.05555	0.00000	3489.28500
2.05937	0.00000	3489.28500
2.06319	0.00000	3489.28500
2.06702	0.00000	3489.28500
2.07085	0.00000	3481.63100
2.07467	0.00000	3481.63100
2.07850	0.00000	3481.63100
2.08232	0.00000	3481.63100
2.08615	0.00000	3481.63100
2.08996	0.00000	3486.21600
2.09379	0.00000	3486.21600
2.09761	0.00000	3486.21600
2.10144	0.00000	3486.21600
2.10526	0.00000	3484.70300
2.10908	0.00000	3484.70300
2.11290	0.00000	3484.70300
2.11671	0.00000	3484.70300
2.12054	0.00000	3484.70300
2.12435	0.00000	3482.14200
2.12817	0.00000	3482.14200
2.13199	0.00000	3482.14200
2.13582	0.00000	3482.14200
2.13965	0.00000	3485.21000
2.14348	0.00000	3485.21000
2.14730	0.00000	3485.21000
2.15112	0.00000	3485.21000
2.15495	0.00000	3485.21000
2.15878	0.00000	3486.21600
2.16260	0.00000	3486.21600
2.16642	0.00000	3486.21600
2.17025	0.00000	3486.21600
2.17408	0.00000	3488.28800
2.17790	0.00000	3488.28800
2.18173	0.00000	3488.28800
2.18556	0.00000	3488.28800
2.18938	0.00000	3488.28800
2.19321	0.00000	3489.28500
2.19703	0.00000	3489.28500
2.20086	0.00000	3489.28500
2.20468	0.00000	3489.28500
2.20851	0.00000	3481.63100
2.21233	0.00000	3481.63100
2.21616	0.00000	3481.63100
2.21999	0.00000	3481.63100
2.22382	0.00000	3481.63100
2.22764	0.00000	3489.78100
2.23146	0.00000	3489.78100
2.23529	0.00000	3489.78100
2.23912	0.00000	3489.78100
2.24294	0.00000	3488.78800
2.24677	0.00000	3488.78800
2.25059	0.00000	3488.78800
2.25442	0.00000	3488.78800
2.25824	0.00000	3488.78800
2.26207	0.00000	3476.04300
2.26590	0.00000	3476.04300
2.26973	0.00000	3476.04300
2.27355	0.00000	3476.04300
2.27737	0.00000	3488.28800
2.28120	0.00000	3488.28800
2.28502	0.00000	3488.28800
2.28886	0.00000	3488.28800
2.29268	0.00000	3488.28800
2.29650	0.00000	3486.21600
2.30033	0.00000	3486.21600
2.30415	0.00000	3486.21600
2.30798	0.00000	3486.21600
2.31180	0.00000	3484.70300
2.31562	0.00000	3484.70300
2.31944	0.00000	3484.70300
2.32327	0.00000	3484.70300
2.32709	0.00000	3484.70300
2.33091	0.00000	3482.65200
2.33474	0.00000	3482.65200
2.33857	0.00000	3482.65200
2.34238	0.00000	3482.65200
2.34621	0.00000	3485.21000
2.35004	0.00000	3485.21000
2.35387	0.00000	3485.21000
2.35770	0.00000	3485.21000
2.36152	0.00000	3485.21000
2.36534	0.00000	3483.15900
2.36917	0.00000	3483.15900
2.37299	0.00000	3483.15900
2.37681	0.00000	3483.15900
2.38064	0.00000	3481.63100
2.38445	0.00000	3481.63100
2.38828	0.00000	3481.63100
2.39210	0.00000	3481.63100
2.39592	0.00000	3481.63100
2.39975	0.00000	3483.15900
2.40357	0.00000	3483.15900
2.40739	0.00000	3483.15900
2.41122	0.00000	3483.15900
2.41505	0.00000	3481.63100
2.41887	0.00000	3481.63100
2.42270	0.00000	3481.63100
2.42652	0.00000	3481.63100
2.43035	0.00000	3481.63100
2.43417	0.00000	3490.27500
2.43800	0.00000	3490.27500
2.44181	0.00000	3490.27500
2.44564	0.00000	3490.27500
2.44948	0.00000	3485.21000
2.45330	0.00000	3485.21000
2.45713	0.00000	3485.21000
2.46095	0.00000	3485.21000
2.46477	0.00000	3485.21000
2.46859	0.00000	3483.15900
2.47241	0.00000	3483.15900
2.47624	0.00000	3483.15900
2.48007	0.00000	3483.15900
2.48389	0.00000	3481.63100
2.48772	0.00000	3481.63100
2.49154	0.00000	3481.63100
2.49537	0.00000	3481.63100
2.49919	0.00000	3481.63100
2.50302	0.00000	3490.27500
2.50685	0.00000	3490.27500
2.51067	0.00000	3490.27500
2.51449	0.00000	3490.27500
2.51831	0.00000	3485.21000
2.52214	0.00000	3485.21000
2.52597	0.00000	3485.21000
2.52979	0.00000	3485.21000
2.53361	0.00000	3485.21000
2.53744	0.00000	3490.27500
2.54127	0.00000	3490.27500
2.54508	0.00000	3490.27500
2.54890	0.00000	3490.27500
2.55273	0.00000	3478.05300
2.55655	0.00000	3478.05300
2.56038	0.00000	3478.05300
2.56420	0.00000	3478.05300
2.56802	0.00000	3478.05300
2.57185	0.00000	3486.21600
2.57567	0.00000	3486.21600
2.57949	0.00000	3486.21600
2.58332	0.00000	3486.21600
2.58714	0.00000	3488.28800
2.59097	0.00000	3488.28800
2.59480	0.00000	3488.28800
2.59863	0.00000	3488.28800
2.60245	0.00000	3488.28800
2.60628	0.00000	3486.21600
2.61010	0.00000	3486.21600
2.61392	0.00000	3486.21600
2.61774	0.00000	3486.21600
2.62157	0.00000	3491.87300
2.62539	0.00000	3491.87300
2.62922	0.00000	3491.87300
2.63304	0.00000	3491.87300
2.63688	0.00000	3491.87300
2.64071	0.00000	3480.11300
2.64453	0.00000	3480.11300
2.64835	0.00000	3480.11300
2.65218	0.00000	3480.11300
2.65599	0.00000	3481.63100
2.65982	0.00000	3481.63100
2.66364	0.00000	3481.63100
2.66746	0.00000	3481.63100
2.67130	0.00000	3481.63100
2.67512	0.00000	3486.71700
2.67895	0.00000	3486.71700
2.68277	0.00000	3486.71700
2.68659	0.00000	3486.71700
2.69042	0.00000	3481.11800
2.69424	0.00000	3481.11800
2.69806	0.00000	3481.11800
2.70189	0.00000	3481.11800
2.70571	0.00000	3481.11800
2.70954	0.00000	3483.15900
2.71336	0.00000	3483.15900
2.71719	0.00000	3483.15900
2.72101	0.00000	3483.15900
2.72484	0.00000	3478.05300
2.72866	0.00000	3478.05300
2.73249	0.00000	3478.05300
2.73631	0.00000	3478.05300
2.74013	0.00000	3478.05300
2.74395	0.00000	3486.71700
2.74778	0.00000	3486.71700
2.75161	0.00000	3486.71700
2.75543	0.00000	3486.71700
2.75925	0.00000	3481.11800
2.76307	0.00000	3481.11800
2.76690	0.00000	3481.11800
2.77073	0.00000	3481.11800
2.77455	0.00000	3481.11800
2.77837	0.00000	3483.15900
2.78219	0.00000	3483.15900
2.78601	0.00000	3483.15900
2.78984	0.00000	3483.15900
2.79366	0.00000	3481.11800
2.79748	0.00000	3481.11800
2.80130	0.00000	3481.11800
2.80508	0.00000	3481.11800
2.80890	0.00000	3481.11800
2.81271	0.00000	3479.08700
2.81653	0.00000	3479.08700
2.82035	0.00000	3479.08700
2.82417	0.00000	3479.08700
2.82799	0.00000	3481.11800
2.83181	0.00000	3481.11800
2.83564	0.00000	3481.11800
2.83947	0.00000	3481.11800
2.84330	0.00000	3481.11800
2.84712	0.00000	3489.78100
2.85094	0.00000	3489.78100
2.85477	0.00000	3489.78100
2.85859	0.00000	3489.78100
2.86242	0.00000	3484.70300
2.86625	0.00000	3484.70300
2.87007	0.00000	3484.70300
2.87389	0.00000	3484.70300
2.87772	0.00000	3484.70300
2.88154	0.00000	3476.04300
2.88537	0.00000	3476.04300
2.88920	0.00000	3476.04300
2.89302	0.00000	3476.04300
2.89686	0.00000	3481.11800
2.90069	0.00000	3481.11800
2.90451	0.00000	3481.11800
2.90833	0.00000	3481.11800
2.91216	0.00000	3481.11800
2.91599	0.00000	3483.15900
2.91981	0.00000	3483.15900
2.92363	0.00000	3483.15900
2.92746	0.00000	3483.15900
2.93128	0.00000	3478.05300
2.93512	0.00000	3478.05300
2.93894	0.00000	3478.05300
2.94277	0.00000	3478.05300
2.94659	0.00000	3478.05300
2.95041	0.00000	3472.48500
2.95423	0.00000	3472.48500
2.95806	0.00000	3472.48500
2.96189	0.00000	3472.48500
2.96571	0.00000	3484.70300
2.96954	0.00000	3484.70300
2.97337	0.00000	3484.70300
2.97719	0.00000	3484.70300
2.98101	0.00000	3484.70300
2.98483	0.00000	3483.15900
2.98866	0.00000	3483.15900
2.99248	0.00000	3483.15900
2.99631	0.00000	3483.15900
3.00014	0.00000	3484.70300
3.00396	0.00000	3484.70300
3.00779	0.00000	3484.70300
3.01161	0.00000	3484.70300
3.01544	0.00000	3484.70300
3.01925	0.00000	3482.65200
3.02308	0.00000	3482.65200
3.02690	0.00000	3482.65200
3.03073	0.00000	3482.65200
3.03455	0.00000	3488.28800
3.03838	0.00000	3488.28800
3.04221	0.00000	3488.28800
3.04603	0.00000	3488.28800
3.04986	0.00000	3488.28800
3.05369	0.00000	3479.60100
3.05751	0.00000	3479.60100
3.06133	0.00000	3479.60100
3.06515	0.00000	3479.60100
3.06898	0.00000	3481.11800
3.07281	0.00000	3481.11800
3.07663	0.00000	3481.11800
3.08045	0.00000	3481.11800
3.08428	0.00000	3481.11800
3.08810	0.00000	3482.65200
3.09192	0.00000	3482.65200
3.09575	0.00000	3482.65200
3.09958	0.00000	3482.65200
3.10340	0.00000	3481.11800
3.10723	0.00000	3481.11800
3.11105	0.00000	3481.11800
3.11488	0.00000	3481.11800
3.11870	0.00000	3481.11800
3.12251	0.00000	3479.60100
3.12634	0.00000	3479.60100
3.13016	0.00000	3479.60100
3.13399	0.00000	3479.60100
3.13781	0.00000	3481.11800
3.14165	0.00000	3481.11800
3.14547	0.00000	3481.11800
3.14929	0.00000	3481.11800
3.15308	0.00000	3481.11800
3.15690	0.00000	3472.48500
3.16072	0.00000	3472.48500
3.16455	0.00000	3472.48500
3.16838	0.00000	3472.48500
3.17220	0.00000	3481.11800
3.17603	0.00000	3481.11800
3.17985	0.00000	3481.11800
3.18367	0.00000	3481.11800
3.18749	0.00000	3481.11800
3.19131	0.00000	3489.78100
3.19514	0.00000	3489.78100
3.19896	0.00000	3489.78100
3.20278	0.00000	3489.78100
3.20661	0.00000	3481.11800
3.21045	0.00000	3481.11800
3.21427	0.00000	3481.11800
3.21809	0.00000	3481.11800
3.22193	0.00000	3481.11800
3.22576	0.00000	3483.15900
3.22959	0.00000	3483.15900
3.23341	0.00000	3483.15900
3.23723	0.00000	3483.15900
3.24105	0.00000	3481.11800
3.24490	0.00000	3481.11800
3.24872	0.00000	3481.11800
3.25254	0.00000	3481.11800
3.25637	0.00000	3481.11800
3.26019	0.00000	3476.04300
3.26401	0.00000	3476.04300
3.26783	0.00000	3476.04300
3.27167	0.00000	3476.04300
3.27549	0.00000	3481.11800
3.27933	0.00000	3481.11800
3.28315	0.00000	3481.11800
3.28697	0.00000	3481.11800
3.29080	0.00000	3481.11800
3.29462	0.00000	3479.60100
3.29845	0.00000	3479.60100
3.30226	0.00000	3479.60100
3.30608	0.00000	3479.60100
3.30991	0.00000	3481.11800
3.31374	0.00000	3481.11800
3.31757	0.00000	3481.11800
3.32140	0.00000	3481.11800
3.32523	0.00000	3481.11800
3.32905	0.00000	3476.04300
3.33288	0.00000	3476.04300
3.33670	0.00000	3476.04300
3.34052	0.00000	3476.04300
3.34435	0.00000	3481.11800
3.34818	0.00000	3481.11800
3.35200	0.00000	3481.11800
3.35583	0.00000	3481.11800
3.35964	0.00000	3481.11800
3.36347	0.00000	3486.21600
3.36729	0.00000	3486.21600
3.37111	0.00000	3486.21600
3.37494	0.00000	3486.21600
3.37877	0.00000	3481.11800
3.38259	0.00000	3481.11800
3.38641	0.00000	3481.11800
3.39023	0.00000	3481.11800
3.39406	0.00000	3481.11800
3.39788	0.00000	3482.65200
3.40170	0.00000	3482.65200
3.40553	0.00000	3482.65200
3.40936	0.00000	3482.65200
3.41319	0.00000	3481.11800
3.41702	0.00000	3481.11800
3.42084	0.00000	3481.11800
3.42466	0.00000	3481.11800
3.42848	0.00000	3481.11800
3.43231	0.00000	3475.52300
3.43613	0.00000	3475.52300
3.43996	0.00000	3475.52300
3.44378	0.00000	3475.52300
3.44761	0.00000	3481.11800
3.45144	0.00000	3481.11800
3.45526	0.00000	3481.11800
3.45908	0.00000	3481.11800
3.46291	0.00000	3481.11800
3.46674	0.00000	3479.08700
3.47056	0.00000	3479.08700
3.47439	0.00000	3479.08700
3.47821	0.00000	3479.08700
3.48203	0.00000	3481.11800
3.48587	0.00000	3481.11800
3.48970	0.00000	3481.11800
3.49352	0.00000	3481.11800
3.49735	0.00000	3481.11800
3.50117	0.00000	3482.65200
3.50500	0.00000	3482.65200
3.50881	0.00000	3482.65200
3.51264	0.00000	3482.65200
3.51646	0.00000	3477.53300
3.52030	0.00000	3477.53300
3.52412	0.00000	3477.53300
3.52794	0.00000	3477.53300
3.53177	0.00000	3477.53300
3.53559	0.00000	3482.14200
3.53941	0.00000	3482.14200
3.54323	0.00000	3482.14200
3.54706	0.00000	3482.14200
3.55088	0.00000	3480.60300
3.55471	0.00000	3480.60300
3.55855	0.00000	3480.60300
3.56237	0.00000	3480.60300
3.56619	0.00000	3480.60300
3.57002	0.00000	3479.08700
3.57384	0.00000	3479.08700
3.57766	0.00000	3479.08700
3.58149	0.00000	3479.08700
3.58531	0.00000	3477.53300
3.58915	0.00000	3477.53300
3.59297	0.00000	3477.53300
3.59679	0.00000	3477.53300
3.60061	0.00000	3477.53300
3.60444	0.00000	3482.65200
3.60826	0.00000	3482.65200
3.61208	0.00000	3482.65200
3.61591	0.00000	3482.65200
3.61973	0.00000	3473.41900
3.62356	0.00000	3473.41900
3.62738	0.00000	3473.41900
3.63120	0.00000	3473.41900
3.63502	0.00000	3473.41900
3.63884	0.00000	3479.08700
3.64266	0.00000	3479.08700
3.64649	0.00000	3479.08700
3.65031	0.00000	3479.08700
3.65413	0.00000	3477.53300
3.65794	0.00000	3477.53300
3.66177	0.00000	3477.53300
3.66559	0.00000	3477.53300
3.66942	0.00000	3477.53300
3.67324	0.00000	3475.52300
3.67707	0.00000	3475.52300
3.68090	0.00000	3475.52300
3.68472	0.00000	3475.52300
3.68855	0.00000	3477.53300
3.69237	0.00000	3477.53300
3.69620	0.00000	3477.53300
3.70002	0.00000	3477.53300
3.70385	0.00000	3477.53300
3.70767	0.00000	3478.57100
3.71149	0.00000	3478.57100
3.71531	0.00000	3478.57100
3.71913	0.00000	3478.57100
3.72296	0.00000	3473.94800
3.72681	0.00000	3473.94800
3.73064	0.00000	3473.94800
3.73446	0.00000	3473.94800
3.73828	0.00000	3473.94800
3.74210	0.00000	3479.08700
3.74593	0.00000	3479.08700
3.74976	0.00000	3479.08700
3.75358	0.00000	3479.08700
3.75740	0.00000	3477.53300
3.76124	0.00000	3477.53300
3.76506	0.00000	3477.53300
3.76889	0.00000	3477.53300
3.77272	0.00000	3477.53300
3.77655	0.00000	3479.08700
3.78037	0.00000	3479.08700
3.78419	0.00000	3479.08700
3.78802	0.00000	3479.08700
3.79184	0.00000	3477.53300
3.79567	0.00000	3477.53300
3.79950	0.00000	3477.53300
3.80332	0.00000	3477.53300
3.80714	0.00000	3477.53300
3.81097	0.00000	3479.08700
3.81479	0.00000	3479.08700
3.81862	0.00000	3479.08700
3.82243	0.00000	3479.08700
3.82626	0.00000	3477.53300
3.83009	0.00000	3477.53300
3.83392	0.00000	3477.53300
3.83775	0.00000	3477.53300
3.84157	0.00000	3477.53300
3.84540	0.00000	3476.04300
3.84923	0.00000	3476.04300
3.85305	0.00000	3476.04300
3.85688	0.00000	3476.04300
3.86070	0.00000	3473.94800
3.86453	0.00000	3473.94800
3.86835	0.00000	3473.94800
3.87218	0.00000	3473.94800
3.87600	0.00000	3473.94800
3.87983	0.00000	3479.08700
3.88365	0.00000	3479.08700
3.88748	0.00000	3479.08700
3.89130	0.00000	3479.08700
3.89513	0.00000	3484.19500
3.89895	0.00000	3484.19500
3.90278	0.00000	3484.19500
3.90660	0.00000	3484.19500
3.91043	0.00000	3484.19500
3.91425	0.00000	3475.52300
3.91808	0.00000	3475.52300
3.92191	0.00000	3475.52300
3.92573	0.00000	3475.52300
3.92955	0.00000	3477.53300
3.93337	0.00000	3477.53300
3.93720	0.00000	3477.53300
3.94101	0.00000	3477.53300
3.94483	0.00000	3477.53300
3.94865	0.00000	3468.39300
3.95248	0.00000	3468.39300
3.95630	0.00000	3468.39300
3.96012	0.00000	3468.39300
3.96396	0.00000	3473.94800
3.96779	0.00000	3473.94800
3.97162	0.00000	3473.94800
3.97544	0.00000	3473.94800
3.97926	0.00000	3473.94800
3.98308	0.00000	3475.52300
3.98691	0.00000	3475.52300
3.99073	0.00000	3475.52300
3.99456	0.00000	3475.52300
3.99837	0.00000	3484.19500
4.00219	0.00000	3484.19500
4.00601	0.00000	3484.19500
4.00983	0.00000	3484.19500
4.01366	0.00000	3484.19500
4.01748	0.00000	3479.08700
4.02131	0.00000	3479.08700
4.02514	0.00000	3479.08700
4.02896	0.00000	3479.08700
4.03279	0.00000	3477.53300
4.03661	0.00000	3477.53300
4.04043	0.00000	3477.53300
4.04426	0.00000	3477.53300
4.04809	0.00000	3477.53300
4.05191	0.00000	3471.95800
4.05573	0.00000	3471.95800
4.05956	0.00000	3471.95800
4.06338	0.00000	3471.95800
4.06721	0.00000	3473.94800
4.07103	0.00000	3473.94800
4.07485	0.00000	3473.94800
4.07868	0.00000	3473.94800
4.08249	0.00000	3473.94800
4.08632	0.00000	3475.52300
4.09014	0.00000	3475.52300
4.09396	0.00000	3475.52300
4.09778	0.00000	3475.52300
4.10161	0.00000	3473.94800
4.10543	0.00000	3473.94800
4.10926	0.00000	3473.94800
4.11308	0.00000	3473.94800
4.11690	0.00000	3473.94800
4.12073	0.00000	3479.08700
4.12455	0.00000	3479.08700
4.12837	0.00000	3479.08700
4.13219	0.00000	3479.08700
4.13603	0.00000	3477.53300
4.13985	0.00000	3477.53300
4.14368	0.00000	3477.53300
4.14750	0.00000	3477.53300
4.15133	0.00000	3477.53300
4.15515	0.00000	3479.08700
4.15898	0.00000	3479.08700
4.16281	0.00000	3479.08700
4.16663	0.00000	3479.08700
4.17045	0.00000	3477.53300
4.17429	0.00000	3477.53300
4.17811	0.00000	3477.53300
4.18194	0.00000	3477.53300
4.18576	0.00000	3477.53300
4.18958	0.00000	3479.08700
4.19340	0.00000	3479.08700
4.19722	0.00000	3479.08700
4.20104	0.00000	3479.08700
4.20486	0.00000	3477.53300
4.20870	0.00000	3477.53300
4.21252	0.00000	3477.53300
4.21635	0.00000	3477.53300
4.22017	0.00000	3477.53300
4.22399	0.00000	3479.08700
4.22781	0.00000	3479.08700
4.23163	0.00000	3479.08700
4.23546	0.00000	3479.08700
4.23929	0.00000	3480.60300
4.24311	0.00000	3480.60300
4.24693	0.00000	3480.60300
4.25076	0.00000	3480.60300
4.25459	0.00000	3480.60300
4.25840	0.00000	3475.00000
4.26223	0.00000	3475.00000
4.26606	0.00000	3475.00000
4.26988	0.00000	3475.00000
4.27370	0.00000	3477.53300
4.27756	0.00000	3477.53300
4.28138	0.00000	3477.53300
4.28521	0.00000	3477.53300
4.28903	0.00000	3477.53300
4.29287	0.00000	3468.92800
4.29669	0.00000	3468.92800
4.30052	0.00000	3468.92800
4.30434	0.00000	3468.92800
4.30817	0.00000	3480.60300
4.31199	0.00000	3480.60300
4.31581	0.00000	3480.60300
4.31963	0.00000	3480.60300
4.32346	0.00000	3480.60300
4.32728	0.00000	3471.95800
4.33111	0.00000	3471.95800
4.33493	0.00000	3471.95800
4.33876	0.00000	3471.95800
4.34259	0.00000	3473.94800
4.34642	0.00000	3473.94800
4.35023	0.00000	3473.94800
4.35407	0.00000	3473.94800
4.35789	0.00000	3473.94800
4.36171	0.00000	3476.04300
4.36553	0.00000	3476.04300
4.36935	0.00000	3476.04300
4.37317	0.00000	3476.04300
4.37700	0.00000	3477.01100
4.38082	0.00000	3477.01100
4.38464	0.00000	3477.01100
4.38846	0.00000	3477.01100
4.39228	0.00000	3477.01100
4.39611	0.00000	3482.65200
4.39992	0.00000	3482.65200
4.40375	0.00000	3482.65200
4.40757	0.00000	3482.65200
4.41140	0.00000	3473.94800
4.41522	0.00000	3473.94800
4.41905	0.00000	3473.94800
4.42286	0.00000	3473.94800
4.42669	0.00000	3473.94800
4.43051	0.00000	3479.08700
4.43433	0.00000	3479.08700
4.43817	0.00000	3479.08700
4.44199	0.00000	3479.08700
4.44581	0.00000	3477.53300
4.44965	0.00000	3477.53300
4.45347	0.00000	3477.53300
4.45730	0.00000	3477.53300
4.46108	0.00000	3477.53300
4.46490	0.00000	3482.65200
4.46873	0.00000	3482.65200
4.47255	0.00000	3482.65200
4.47637	0.00000	3482.65200
4.48020	0.00000	3480.60300
4.48403	0.00000	3480.60300
4.48786	0.00000	3480.60300
4.49168	0.00000	3480.60300
4.49551	0.00000	3480.60300
4.49933	0.00000	3475.52300
4.50315	0.00000	3475.52300
4.50696	0.00000	3475.52300
4.51079	0.00000	3475.52300
4.51461	0.00000	3473.94800
4.51845	0.00000	3473.94800
4.52226	0.00000	3473.94800
4.52608	0.00000	3473.94800
4.52991	0.00000	3473.94800
4.53373	0.00000	3482.14200
4.53755	0.00000	3482.14200
4.54138	0.00000	3482.14200
4.54520	0.00000	3482.14200
4.54902	0.00000	3477.53300
4.55287	0.00000	3477.53300
4.55669	0.00000	3477.53300
4.56051	0.00000	3477.53300
4.56433	0.00000	3477.53300
4.56816	0.00000	3482.65200
4.57198	0.00000	3482.65200
4.57581	0.00000	3482.65200
4.57964	0.00000	3482.65200
4.58346	0.00000	3473.94800
4.58729	0.00000	3473.94800
4.59111	0.00000	3473.94800
4.59494	0.00000	3473.94800
4.59877	0.00000	3473.94800
4.60259	0.00000	3471.95800
4.60641	0.00000	3471.95800
4.61023	0.00000	3471.95800
4.61405	0.00000	3471.95800
4.61788	0.00000	3477.53300
4.62172	0.00000	3477.53300
4.62554	0.00000	3477.53300
4.62936	0.00000	3477.53300
4.63319	0.00000	3477.53300
4.63701	0.00000	3482.65200
4.64083	0.00000	3482.65200
4.64465	0.00000	3482.65200
4.64848	0.00000	3482.65200
4.65230	0.00000	3481.11800
4.65614	0.00000	3481.11800
4.65996	0.00000	3481.11800
4.66379	0.00000	3481.11800
4.66762	0.00000	3481.11800
4.67145	0.00000	3479.08700
4.67527	0.00000	3479.08700
4.67910	0.00000	3479.08700
4.68292	0.00000	3479.08700
4.68675	0.00000	3477.53300
4.69057	0.00000	3477.53300
4.69440	0.00000	3477.53300
4.69822	0.00000	3477.53300
4.70204	0.00000	3477.53300
4.70586	0.00000	3482.14200
4.70969	0.00000	3482.14200
4.71351	0.00000	3482.14200
4.71734	0.00000	3482.14200
4.72116	0.00000	3470.89700
4.72499	0.00000	3470.89700
4.72881	0.00000	3470.89700
4.73263	0.00000	3470.89700
4.73646	0.00000	3470.89700
4.74028	0.00000	3475.52300
4.74411	0.00000	3475.52300
4.74793	0.00000	3475.52300
4.75175	0.00000	3475.52300
4.75557	0.00000	3473.41900
4.75940	0.00000	3473.41900
4.76323	0.00000	3473.41900
4.76705	0.00000	3473.41900
4.77088	0.00000	3473.41900
4.77470	0.00000	3475.52300
4.77852	0.00000	3475.52300
4.78234	0.00000	3475.52300
4.78616	0.00000	3475.52300
4.78998	0.00000	3473.94800
4.79381	0.00000	3473.94800
4.79764	0.00000	3473.94800
4.80146	0.00000	3473.94800
4.80528	0.00000	3473.94800
4.80908	0.00000	3471.95800
4.81290	0.00000	3471.95800
4.81673	0.00000	3471.95800
4.82055	0.00000	3471.95800
4.82437	0.00000	3477.53300
4.82821	0.00000	3477.53300
4.83203	0.00000	3477.53300
4.83586	0.00000	3477.53300
4.83969	0.00000	3477.53300
4.84352	0.00000	3482.14200
4.84735	0.00000	3482.14200
4.85117	0.00000	3482.14200
4.85499	0.00000	3482.14200
4.85881	0.00000	3480.60300
4.86264	0.00000	3480.60300
4.86646	0.00000	3480.60300
4.87029	0.00000	3480.60300
4.87411	0.00000	3480.60300
4.87794	0.00000	3479.08700
4.88176	0.00000	3479.08700
4.88560	0.00000	3479.08700
4.88942	0.00000	3479.08700
4.89324	0.00000	3477.53300
4.89708	0.00000	3477.53300
4.90090	0.00000	3477.53300
4.90472	0.00000	3477.53300
4.90854	0.00000	3477.53300
4.91238	0.00000	3479.08700
4.91620	0.00000	3479.08700
4.92003	0.00000	3479.08700
4.92385	0.00000	3479.08700
4.92767	0.00000	3473.94800
4.93151	0.00000	3473.94800
4.93533	0.00000	3473.94800
4.93916	0.00000	3473.94800
4.94298	0.00000	3473.94800
4.94680	0.00000	3482.65200
4.95062	0.00000	3482.65200
4.95444	0.00000	3482.65200
4.95835	0.00000	3482.65200
4.96220	0.00000	3477.53300
4.96605	0.00000	3477.53300
4.96988	0.00000	3477.53300
4.97370	0.00000	3477.53300
4.97754	0.00000	3477.53300
4.98136	0.00000	3479.08700
4.98519	0.00000	3479.08700
4.98902	0.00000	3479.08700
4.99284	0.00000	3479.08700
4.99666	0.00000	3474.47500
5.00099	0.00000	3474.47500
5.00486	0.00000	3474.47500
5.00871	0.00000	3474.47500
5.01255	0.00000	3474.47500
5.01641	0.00000	3475.52300
5.02024	0.00000	3475.52300
5.02407	0.00000	3475.52300
5.02792	0.00000	3475.52300
5.03180	0.00000	3566.72900
5.03566	0.00000	3566.72900
5.03951	0.00000	3566.72900
5.04336	0.00000	3566.72900
5.04720	0.00000	3566.72900
5.05105	0.00000	3939.79000
5.05488	0.00000	3939.79000
5.05873	0.00000	3939.79000
5.06257	0.00000	3939.79000
5.06639	0.00000	3939.79000
5.07023	0.00000	4246.50500
5.07405	0.00000	4246.50500
5.07788	0.00000	4246.50500
5.08172	0.00000	4246.50500
5.08555	0.00000	4246.50500
5.08938	0.00000	4246.50500
5.09322	0.00000	4470.25700
5.09705	0.00000	4470.25700
5.10089	0.00000	4470.25700
5.10473	0.00000	4470.25700
5.10856	0.00000	4470.25700
5.11240	0.00000	4639.35000
5.11626	0.00000	4639.35000
5.12011	0.00000	4639.35000
5.12395	0.00000	4639.35000
5.12779	0.00000	4639.35000
5.13163	0.00000	4639.35000
5.13547	0.00000	4768.24800
5.13931	0.00000	4768.24800
5.14314	0.00000	4768.24800
5.14699	0.00000	4768.24800
5.15083	0.00000	4768.24800
5.15466	0.00000	4768.24800
5.15849	0.00000	4859.42000
5.16233	0.00000	4859.42000
5.16616	0.00000	4859.42000
5.16999	0.00000	4859.42000
5.17383	0.00000	4859.42000
5.17768	0.00000	4859.42000
5.18152	0.00000	4909.95700
5.18535	0.00000	4909.95700
5.18918	0.00000	4909.95700
5.19301	0.00000	4909.95700
5.19685	0.00000	4909.95700
5.20068	0.00000	4909.95700
5.20452	0.00000	4955.54400
5.20836	0.00000	4955.54400
5.21218	0.00000	4955.54400
5.21602	0.00000	4955.54400
5.21985	0.00000	4955.54400
5.22369	0.00000	4955.54400
5.22752	0.00000	4996.53700
5.23137	0.00000	4996.53700
5.23521	0.00000	4996.53700
5.23904	0.00000	4996.53700
5.24286	0.00000	4996.53700
5.24669	0.00000	4996.53700
5.25052	0.00000	4996.53700
5.25434	0.00000	5012.01900
5.25817	0.00000	5012.01900
5.26201	0.00000	5012.01900
5.26584	0.00000	5012.01900
5.26967	0.00000	5012.01900
5.27350	0.00000	5012.01900
5.27735	0.00000	5024.89700
5.28119	0.00000	5024.89700
5.28504	0.00000	5024.89700
5.28888	0.00000	5024.89700
5.29272	0.00000	5024.89700
5.29655	0.00000	5024.89700
5.30038	0.00000	5041.15200
5.30422	0.00000	5041.15200
5.30806	0.00000	5041.15200
5.31189	0.00000	5041.15200
5.31573	0.00000	5041.15200
5.31956	0.00000	5041.15200
5.32338	0.00000	5044.52000
5.32723	0.00000	5044.52000
5.33105	0.00000	5044.52000
5.33489	0.00000	5044.52000
5.33872	0.00000	5044.52000
5.34255	0.00000	5044.52000
5.34639	0.00000	5042.74900
5.35024	0.00000	5042.74900
5.35407	0.00000	5042.74900
5.35791	0.00000	5042.74900
5.36173	0.00000	5042.74900
5.36557	0.00000	5042.74900
5.36942	0.00000	5042.74900
5.37325	0.00000	5056.12200
5.37708	0.00000	5056.12200
5.38091	0.00000	5056.12200
5.38473	0.00000	5056.12200
5.38857	0.00000	5056.12200
5.39241	0.00000	5056.12200
5.39626	0.00000	5059.68600
5.40010	0.00000	5059.68600
5.40393	0.00000	5059.68600
5.40776	0.00000	5059.68600
5.41160	0.00000	5059.68600
5.41544	0.00000	5059.68600
5.41928	0.00000	5054.57000
5.42311	0.00000	5054.57000
5.42694	0.00000	5054.57000
5.43078	0.00000	5054.57000
5.43462	0.00000	5054.57000
5.43844	0.00000	5054.57000
5.44226	0.00000	5058.91400
5.44610	0.00000	5058.91400
5.44993	0.00000	5058.91400
5.45377	0.00000	5058.91400
5.45764	0.00000	5058.91400
5.46150	0.00000	5058.91400
5.46535	0.00000	5058.91400
5.46919	0.00000	5050.23800
5.47304	0.00000	5050.23800
5.47688	0.00000	5050.23800
5.48073	0.00000	5050.23800
5.48456	0.00000	5050.23800
5.48840	0.00000	5050.23800
5.49223	0.00000	5057.12800
5.49607	0.00000	5057.12800
5.49990	0.00000	5057.12800
5.50373	0.00000	5057.12800
5.50756	0.00000	5057.12800
5.51139	0.00000	5057.12800
5.51523	0.00000	5052.01200
5.51907	0.00000	5052.01200
5.52290	0.00000	5052.01200
5.52673	0.00000	5052.01200
5.53056	0.00000	5052.01200
5.53439	0.00000	5052.01200
5.53823	0.00000	5054.57000
5.54206	0.00000	5054.57000
5.54589	0.00000	5054.57000
5.54973	0.00000	5054.57000
5.55357	0.00000	5054.57000
5.55740	0.00000	5054.57000
5.56124	0.00000	5059.68600
5.56506	0.00000	5059.68600
5.56890	0.00000	5059.68600
5.57273	0.00000	5059.68600
5.57656	0.00000	5059.68600
5.58040	0.00000	5059.68600
5.58423	0.00000	5059.68600
5.58807	0.00000	5055.34700
5.59190	0.00000	5055.34700
5.59574	0.00000	5055.34700
5.59958	0.00000	5055.34700
5.60342	0.00000	5055.34700
5.60726	0.00000	5055.34700
5.61111	0.00000	5058.91400
5.61493	0.00000	5058.91400
5.61877	0.00000	5058.91400
5.62260	0.00000	5058.91400
5.62645	0.00000	5058.91400
5.63028	0.00000	5058.91400
5.63411	0.00000	5059.68600
5.63794	0.00000	5059.68600
5.64178	0.00000	5059.68600
5.64561	0.00000	5059.68600
5.64944	0.00000	5059.68600
5.65329	0.00000	5059.68600
5.65708	0.00000	5052.01200
5.66092	0.00000	5052.01200
5.66476	0.00000	5052.01200
5.66860	0.00000	5052.01200
5.67244	0.00000	5052.01200
5.67628	0.00000	5052.01200
5.68012	0.00000	5052.01200
5.68395	0.00000	5049.25200
5.68780	0.00000	5049.25200
5.69163	0.00000	5049.25200
5.69547	0.00000	5049.25200
5.69929	0.00000	5049.25200
5.70313	0.00000	5049.25200
5.70696	0.00000	5053.79100
5.71080	0.00000	5053.79100
5.71462	0.00000	5053.79100
5.71846	0.00000	5053.79100
5.72226	0.00000	5053.79100
5.72609	0.00000	5053.79100
5.72992	0.00000	5059.68600
5.73378	0.00000	5059.68600
5.73760	0.00000	5059.68600
5.74143	0.00000	5059.68600
5.74527	0.00000	5059.68600
5.74907	0.00000	5059.68600
5.75291	0.00000	5058.91400
5.75676	0.00000	5058.91400
5.76058	0.00000	5058.91400
5.76441	0.00000	5058.91400
5.76824	0.00000	5058.91400
5.77208	0.00000	5058.91400
5.77592	0.00000	5058.91400
5.77976	0.00000	5056.12200
5.78359	0.00000	5056.12200
5.78742	0.00000	5056.12200
5.79126	0.00000	5056.12200
5.79510	0.00000	5056.12200
5.79894	0.00000	5056.12200
5.80277	0.00000	5054.57000
5.80662	0.00000	5054.57000
5.81045	0.00000	5054.57000
5.81428	0.00000	5054.57000
5.81812	0.00000	5054.57000
5.82195	0.00000	5054.57000
5.82579	0.00000	5054.57000
5.82962	0.00000	5054.57000
5.83345	0.00000	5054.57000
5.83728	0.00000	5054.57000
5.84113	0.00000	5054.57000
5.84496	0.00000	5054.57000
5.84878	0.00000	5051.22900
5.85263	0.00000	5051.22900
5.85647	0.00000	5051.22900
5.86030	0.00000	5051.22900
5.86414	0.00000	5051.22900
5.86797	0.00000	5051.22900
5.87179	0.00000	5046.89600
5.87562	0.00000	5046.89600
5.87946	0.00000	5046.89600
5.88330	0.00000	5046.89600
5.88713	0.00000	5046.89600
5.89097	0.00000	5046.89600
5.89479	0.00000	5046.89600
5.89863	0.00000	5055.34700
5.90247	0.00000	5055.34700
5.90631	0.00000	5055.34700
5.91015	0.00000	5055.34700
5.91399	0.00000	5055.34700
5.91782	0.00000	5055.34700
5.92166	0.00000	5052.01200
5.92549	0.00000	5052.01200
5.92934	0.00000	5052.01200
5.93318	0.00000	5052.01200
5.93701	0.00000	5052.01200
5.94085	0.00000	5052.01200
5.94469	0.00000	5054.57000
5.94852	0.00000	5054.57000
5.95235	0.00000	5054.57000
5.95618	0.00000	5054.57000
5.96002	0.00000	5054.57000
5.96385	0.00000	5054.57000
5.96768	0.00000	5062.24400
5.97153	0.00000	5062.24400
5.97537	0.00000	5062.24400
5.97920	0.00000	5062.24400
5.98303	0.00000	5062.24400
5.98687	0.00000	5062.24400
5.99071	0.00000	5062.24400
5.99454	0.00000	5054.34800
5.99837	0.00000	5054.34800
6.00220	0.00000	5054.34800
6.00603	0.00000	5054.34800
6.00986	0.00000	5054.34800
6.01370	0.00000	5054.34800
6.01753	0.00000	5057.90200
6.02136	0.00000	5057.90200
6.02520	0.00000	5057.90200
6.02903	0.00000	5057.90200
6.03286	0.00000	5057.90200
6.03669	0.00000	5057.90200
6.04053	0.00000	5057.12800
6.04436	0.00000	5057.12800
6.04819	0.00000	5057.12800
6.05203	0.00000	5057.12800
6.05586	0.00000	5057.12800
6.05969	0.00000	5057.12800
6.06352	0.00000	5054.57000
6.06735	0.00000	5054.57000
6.07119	0.00000	5054.57000
6.07502	0.00000	5054.57000
6.07886	0.00000	5054.57000
6.08269	0.00000	5054.57000
6.08653	0.00000	5054.57000
6.09037	0.00000	5055.12200
6.09420	0.00000	5055.12200
6.09803	0.00000	5055.12200
6.10186	0.00000	5055.12200
6.10570	0.00000	5055.12200
6.10953	0.00000	5055.12200
6.11337	0.00000	5063.01100
6.11721	0.00000	5063.01100
6.12104	0.00000	5063.01100
6.12488	0.00000	5063.01100
6.12871	0.00000	5063.01100
6.13255	0.00000	5063.01100
6.13637	0.00000	5060.45600
6.14021	0.00000	5060.45600
6.14404	0.00000	5060.45600
6.14788	0.00000	5060.45600
6.15171	0.00000	5060.45600
6.15554	0.00000	5060.45600
6.15937	0.00000	5060.45600
6.16321	0.00000	5060.45600
6.16704	0.00000	5060.45600
6.17087	0.00000	5060.45600
6.17471	0.00000	5060.45600
6.17854	0.00000	5060.45600
6.18237	0.00000	5060.45600
6.18620	0.00000	5057.66600
6.19004	0.00000	5057.66600
6.19387	0.00000	5057.66600
6.19770	0.00000	5057.66600
6.20153	0.00000	5057.66600
6.20536	0.00000	5057.66600
6.20919	0.00000	5057.90200
6.21302	0.00000	5057.90200
6.21686	0.00000	5057.90200
6.22070	0.00000	5057.90200
6.22453	0.00000	5057.90200
6.22837	0.00000	5057.90200
6.23220	0.00000	5057.90200
6.23604	0.00000	5057.90200
6.23988	0.00000	5057.90200
6.24372	0.00000	5057.90200
6.24755	0.00000	5057.90200
6.25139	0.00000	5057.90200
6.25523	0.00000	5055.34700
6.25908	0.00000	5055.34700
6.26291	0.00000	5055.34700
6.26675	0.00000	5055.34700
6.27059	0.00000	5055.34700
6.27443	0.00000	5055.34700
6.27826	0.00000	5055.34700
6.28208	0.00000	5058.67300
6.28591	0.00000	5058.67300
6.28976	0.00000	5058.67300
6.29359	0.00000	5058.67300
6.29742	0.00000	5058.67300
6.30126	0.00000	5058.67300
6.30508	0.00000	5052.79300
6.30891	0.00000	5052.79300
6.31275	0.00000	5052.79300
6.31662	0.00000	5052.79300
6.32048	0.00000	5052.79300
6.32432	0.00000	5052.79300
6.32817	0.00000	5052.79300
6.33201	0.00000	5052.79300
6.33585	0.00000	5052.79300
6.33968	0.00000	5052.79300
6.34352	0.00000	5052.79300
6.34735	0.00000	5052.79300
6.35117	0.00000	5065.56500
6.35500	0.00000	5065.56500
6.35883	0.00000	5065.56500
6.36267	0.00000	5065.56500
6.36650	0.00000	5065.56500
6.37033	0.00000	5065.56500
6.37416	0.00000	5070.67500
6.37798	0.00000	5070.67500
6.38182	0.00000	5070.67500
6.38566	0.00000	5070.67500
6.38949	0.00000	5070.67500
6.39333	0.00000	5070.67500
6.39716	0.00000	5070.67500
6.40099	0.00000	5065.56500
6.40482	0.00000	5065.56500
6.40865	0.00000	5065.56500
6.41250	0.00000	5065.56500
6.41634	0.00000	5065.56500
6.42018	0.00000	5065.56500
6.42402	0.00000	5058.67300
6.42785	0.00000	5058.67300
6.43168	0.00000	5058.67300
6.43552	0.00000	5058.67300
6.43937	0.00000	5058.67300
6.44320	0.00000	5058.67300
6.44703	0.00000	5063.01100
6.45086	0.00000	5063.01100
6.45470	0.00000	5063.01100
6.45854	0.00000	5063.01100
6.46237	0.00000	5063.01100
6.46621	0.00000	5063.01100
6.47005	0.00000	5052.79300
6.47387	0.00000	5052.79300
6.47771	0.00000	5052.79300
6.48156	0.00000	5052.79300
6.48539	0.00000	5052.79300
6.48923	0.00000	5052.79300
6.49306	0.00000	5052.79300
6.49691	0.00000	5054.34800
6.50074	0.00000	5054.34800
6.50458	0.00000	5054.34800
6.50840	0.00000	5054.34800
6.51223	0.00000	5054.34800
6.51608	0.00000	5054.34800
6.51991	0.00000	5054.57000
6.52375	0.00000	5054.57000
6.52758	0.00000	5054.57000
6.53144	0.00000	5054.57000
6.53528	0.00000	5054.57000
6.53911	0.00000	5054.57000
6.54295	0.00000	5053.79100
6.54680	0.00000	5053.79100
6.55063	0.00000	5053.79100
6.55446	0.00000	5053.79100
6.55829	0.00000	5053.79100
6.56212	0.00000	5053.79100
6.56595	0.00000	5055.34700
6.56981	0.00000	5055.34700
6.57365	0.00000	5055.34700
6.57747	0.00000	5055.34700
6.58130	0.00000	5055.34700
6.58513	0.00000	5055.34700
6.58898	0.00000	5055.34700
6.59281	0.00000	5055.12200
6.59664	0.00000	5055.12200
6.60048	0.00000	5055.12200
6.60431	0.00000	5055.12200
6.60815	0.00000	5055.12200
6.61198	0.00000	5055.12200
6.61581	0.00000	5057.90200
6.61964	0.00000	5057.90200
6.62347	0.00000	5057.90200
6.62731	0.00000	5057.90200
6.63114	0.00000	5057.90200
6.63497	0.00000	5057.90200
6.63881	0.00000	5062.24400
6.64264	0.00000	5062.24400
6.64647	0.00000	5062.24400
6.65031	0.00000	5062.24400
6.65414	0.00000	5062.24400
6.65796	0.00000	5062.24400
6.66180	0.00000	5063.01100
6.66566	0.00000	5063.01100
6.66950	0.00000	5063.01100
6.67332	0.00000	5063.01100
6.67718	0.00000	5063.01100
6.68101	0.00000	5063.01100
6.68485	0.00000	5063.01100
6.68869	0.00000	5066.05600
6.69253	0.00000	5066.05600
6.69636	0.00000	5066.05600
6.70019	0.00000	5066.05600
6.70402	0.00000	5066.05600
6.70787	0.00000	5066.05600
6.71170	0.00000	5063.01100
6.71553	0.00000	5063.01100
6.71936	0.00000	5063.01100
6.72320	0.00000	5063.01100
6.72703	0.00000	5063.01100
6.73086	0.00000	5063.01100
6.73470	0.00000	5057.90200
6.73853	0.00000	5057.90200
6.74236	0.00000	5057.90200
6.74619	0.00000	5057.90200
6.75002	0.00000	5057.90200
6.75386	0.00000	5057.90200
6.75769	0.00000	5061.22400
6.76153	0.00000	5061.22400
6.76537	0.00000	5061.22400
6.76920	0.00000	5061.22400
6.77304	0.00000	5061.22400
6.77688	0.00000	5061.22400
6.78072	0.00000	5061.22400
6.78455	0.00000	5062.75400
6.78838	0.00000	5062.75400
6.79222	0.00000	5062.75400
6.79606	0.00000	5062.75400
6.79989	0.00000	5062.75400
6.80372	0.00000	5062.75400
6.80755	0.00000	5060.45600
6.81138	0.00000	5060.45600
6.81521	0.00000	5060.45600
6.81905	0.00000	5060.45600
6.82288	0.00000	5060.45600
6.82671	0.00000	5060.45600
6.83054	0.00000	5060.45600
6.83437	0.00000	5060.45600
6.83820	0.00000	5060.45600
6.84204	0.00000	5060.45600
6.84587	0.00000	5060.45600
6.84971	0.00000	5060.45600
6.85354	0.00000	5060.45600
6.85738	0.00000	5060.45600
6.86122	0.00000	5060.45600
6.86505	0.00000	5060.45600
6.86889	0.00000	5060.45600
6.87273	0.00000	5060.45600
6.87656	0.00000	5060.45600
6.88039	0.00000	5064.53800
6.88422	0.00000	5064.53800
6.88806	0.00000	5064.53800
6.89189	0.00000	5064.53800
6.89572	0.00000	5064.53800
6.89956	0.00000	5064.53800
6.90339	0.00000	5069.91800
6.90721	0.00000	5069.91800
6.91105	0.00000	5069.91800
6.91488	0.00000	5069.91800
6.91872	0.00000	5069.91800
6.92254	0.00000	5069.91800
6.92638	0.00000	5059.68600
6.93021	0.00000	5059.68600
6.93404	0.00000	5059.68600
6.93788	0.00000	5059.68600
6.94171	0.00000	5059.68600
6.94554	0.00000	5059.68600
6.94938	0.00000	5054.57000
6.95323	0.00000	5054.57000
6.95706	0.00000	5054.57000
6.96090	0.00000	5054.57000
6.96473	0.00000	5054.57000
6.96856	0.00000	5054.57000
6.97239	0.00000	5054.57000
6.97621	0.00000	5061.22400
6.98005	0.00000	5061.22400
6.98388	0.00000	5061.22400
6.98772	0.00000	5061.22400
6.99155	0.00000	5061.22400
6.99539	0.00000	5061.22400
6.99922	0.00000	5052.79300
7.00305	0.00000	5052.79300
7.00690	0.00000	5052.79300
7.01073	0.00000	5052.79300
7.01456	0.00000	5052.79300
7.01839	0.00000	5052.79300
7.02223	0.00000	5062.24400
7.02606	0.00000	5062.24400
7.02991	0.00000	5062.24400
7.03374	0.00000	5062.24400
7.03758	0.00000	5062.24400
7.04143	0.00000	5062.24400
7.04526	0.00000	5059.68600
7.04908	0.00000	5059.68600
7.05291	0.00000	5059.68600
7.05675	0.00000	5059.68600
7.06058	0.00000	5059.68600
7.06442	0.00000	5059.68600
7.06826	0.00000	5055.34700
7.07209	0.00000	5055.34700
7.07592	0.00000	5055.34700
7.07975	0.00000	5055.34700
7.08359	0.00000	5055.34700
7.08742	0.00000	5055.34700
7.09126	0.00000	5055.34700
7.09509	0.00000	5065.56500
7.09893	0.00000	5065.56500
7.10277	0.00000	5065.56500
7.10661	0.00000	5065.56500
7.11043	0.00000	5065.56500
7.11426	0.00000	5065.56500
7.11809	0.00000	5054.57000
7.12192	0.00000	5054.57000
7.12575	0.00000	5054.57000
7.12959	0.00000	5054.57000
7.13343	0.00000	5054.57000
7.13726	0.00000	5054.57000
7.14108	0.00000	5056.35200
7.14491	0.00000	5056.35200
7.14874	0.00000	5056.35200
7.15257	0.00000	5056.35200
7.15639	0.00000	5056.35200
7.16023	0.00000	5056.35200
7.16406	0.00000	5053.79100
7.16791	0.00000	5053.79100
7.17174	0.00000	5053.79100
7.17558	0.00000	5053.79100
7.17940	0.00000	5053.79100
7.18324	0.00000	5053.79100
7.18707	0.00000	5053.79100
7.19091	0.00000	5051.80000
7.19474	0.00000	5051.80000
7.19858	0.00000	5051.80000
7.20241	0.00000	5051.80000
7.20624	0.00000	5051.80000
7.21008	0.00000	5051.80000
7.21391	0.00000	5057.90200
7.21774	0.00000	5057.90200
7.22158	0.00000	5057.90200
7.22540	0.00000	5057.90200
7.22924	0.00000	5057.90200
7.23308	0.00000	5057.90200
7.23691	0.00000	5054.57000
7.24073	0.00000	5054.57000
7.24456	0.00000	5054.57000
7.24840	0.00000	5054.57000
7.25223	0.00000	5054.57000
7.25607	0.00000	5054.57000
7.25990	0.00000	5057.12800
7.26376	0.00000	5057.12800
7.26759	0.00000	5057.12800
7.27143	0.00000	5057.12800
7.27526	0.00000	5057.12800
7.27909	0.00000	5057.12800
7.28292	0.00000	5057.12800
7.28675	0.00000	5050.81300
7.29059	0.00000	5050.81300
7.29442	0.00000	5050.81300
7.29825	0.00000	5050.81300
7.30208	0.00000	5050.81300
7.30593	0.00000	5050.81300
7.30976	0.00000	5057.12800
7.31359	0.00000	5057.12800
7.31742	0.00000	5057.12800
7.32125	0.00000	5057.12800
7.32507	0.00000	5057.12800
7.32891	0.00000	5057.12800
7.33274	0.00000	5067.36000
7.33658	0.00000	5067.36000
7.34041	0.00000	5067.36000
7.34424	0.00000	5067.36000
7.34807	0.00000	5067.36000
7.35190	0.00000	5067.36000
7.35573	0.00000	5063.01100
7.35957	0.00000	5063.01100
7.36339	0.00000	5063.01100
7.36722	0.00000	5063.01100
7.37106	0.00000	5063.01100
7.37489	0.00000	5063.01100
7.37872	0.00000	5063.01100
7.38256	0.00000	5055.89400
7.38639	0.00000	5055.89400
7.39022	0.00000	5055.89400
7.39405	0.00000	5055.89400
7.39788	0.00000	5055.89400
7.40171	0.00000	5055.89400
7.40554	0.00000	5060.45600
7.40937	0.00000	5060.45600
7.41320	0.00000	5060.45600
7.41704	0.00000	5060.45600
7.42088	0.00000	5060.45600
7.42472	0.00000	5060.45600
7.42855	0.00000	5064.80200
7.43239	0.00000	5064.80200
7.43622	0.00000	5064.80200
7.44006	0.00000	5064.80200
7.44389	0.00000	5064.80200
7.44772	0.00000	5064.80200
7.45155	0.00000	5057.90200
7.45540	0.00000	5057.90200
7.45923	0.00000	5057.90200
7.46306	0.00000	5057.90200
7.46689	0.00000	5057.90200
7.47072	0.00000	5057.90200
7.47455	0.00000	5057.90200
7.47837	0.00000	5058.43400
7.48221	0.00000	5058.43400
7.48604	0.00000	5058.43400
7.48987	0.00000	5058.43400
7.49370	0.00000	5058.43400
7.49753	0.00000	5058.43400
7.50136	0.00000	5065.56500
7.50519	0.00000	5065.56500
7.50902	0.00000	5065.56500
7.51286	0.00000	5065.56500
7.51670	0.00000	5065.56500
7.52054	0.00000	5065.56500
7.52437	0.00000	5063.01100
7.52820	0.00000	5063.01100
7.53203	0.00000	5063.01100
7.53586	0.00000	5063.01100
7.53970	0.00000	5063.01100
7.54354	0.00000	5063.01100
7.54737	0.00000	5068.11900
7.55123	0.00000	5068.11900
7.55507	0.00000	5068.11900
7.55890	0.00000	5068.11900
7.56273	0.00000	5068.11900
7.56658	0.00000	5068.11900
7.57041	0.00000	5068.11900
7.57426	0.00000	5067.84300
7.57809	0.00000	5067.84300
7.58194	0.00000	5067.84300
7.58578	0.00000	5067.84300
7.58961	0.00000	5067.84300
7.59345	0.00000	5067.84300
7.59728	0.00000	5061.22400
7.60108	0.00000	5061.22400
7.60491	0.00000	5061.22400
7.60874	0.00000	5061.22400
7.61258	0.00000	5061.22400
7.61641	0.00000	5061.22400
7.62024	0.00000	5062.24400
7.62407	0.00000	5062.24400
7.62790	0.00000	5062.24400
7.63173	0.00000	5062.24400
7.63556	0.00000	5062.24400
7.63939	0.00000	5062.24400
7.64323	0.00000	5062.24400
7.64709	0.00000	5062.24400
7.65092	0.00000	5062.24400
7.65475	0.00000	5062.24400
7.65858	0.00000	5062.24400
7.66241	0.00000	5062.24400
7.66625	0.00000	5062.24400
7.67008	0.00000	5055.12200
7.67391	0.00000	5055.12200
7.67775	0.00000	5055.12200
7.68159	0.00000	5055.12200
7.68542	0.00000	5055.12200
7.68925	0.00000	5055.12200
7.69307	0.00000	5065.56500
7.69691	0.00000	5065.56500
7.70075	0.00000	5065.56500
7.70459	0.00000	5065.56500
7.70842	0.00000	5065.56500
7.71226	0.00000	5065.56500
7.71609	0.00000	5070.67500
7.71993	0.00000	5070.67500
7.72377	0.00000	5070.67500
7.72760	0.00000	5070.67500
7.73143	0.00000	5070.67500
7.73526	0.00000	5070.67500
7.73909	0.00000	5061.22400
7.74292	0.00000	5061.22400
7.74675	0.00000	5061.22400
7.75058	0.00000	5061.22400
7.75441	0.00000	5061.22400
7.75824	0.00000	5061.22400
7.76207	0.00000	5061.22400
7.76589	0.00000	5059.44300
7.76972	0.00000	5059.44300
7.77356	0.00000	5059.44300
7.77740	0.00000	5059.44300
7.78123	0.00000	5059.44300
7.78506	0.00000	5059.44300
7.78890	0.00000	5052.01200
7.79274	0.00000	5052.01200
7.79656	0.00000	5052.01200
7.80039	0.00000	5052.01200
7.80423	0.00000	5052.01200
7.80806	0.00000	5052.01200
7.81190	0.00000	5051.22900
7.81573	0.00000	5051.22900
7.81956	0.00000	5051.22900
7.82339	0.00000	5051.22900
7.82722	0.00000	5051.22900
7.83106	0.00000	5051.22900
7.83490	0.00000	5054.57000
7.83873	0.00000	5054.57000
7.84256	0.00000	5054.57000
7.84640	0.00000	5054.57000
7.85023	0.00000	5054.57000
7.85407	0.00000	5054.57000
7.85794	0.00000	5057.12800
7.86179	0.00000	5057.12800
7.86564	0.00000	5057.12800
7.86949	0.00000	5057.12800
7.87334	0.00000	5057.12800
7.87717	0.00000	5057.12800
7.88101	0.00000	5057.12800
7.88484	0.00000	5060.45600
7.88867	0.00000	5060.45600
7.89250	0.00000	5060.45600
7.89634	0.00000	5060.45600
7.90017	0.00000	5060.45600
7.90402	0.00000	5060.45600
7.90785	0.00000	5064.80200
7.91169	0.00000	5064.80200
7.91553	0.00000	5064.80200
7.91937	0.00000	5064.80200
7.92320	0.00000	5064.80200
7.92704	0.00000	5064.80200
7.93087	0.00000	5060.45600
7.93471	0.00000	5060.45600
7.93854	0.00000	5060.45600
7.94238	0.00000	5060.45600
7.94620	0.00000	5060.45600
7.95003	0.00000	5060.45600
7.95387	0.00000	5064.80200
7.95773	0.00000	5064.80200
7.96156	0.00000	5064.80200
7.96540	0.00000	5064.80200
7.96924	0.00000	5064.80200
7.97308	0.00000	5064.80200
7.97691	0.00000	5064.80200
7.98074	0.00000	5057.66600
7.98457	0.00000	5057.66600
7.98840	0.00000	5057.66600
7.99223	0.00000	5057.66600
7.99607	0.00000	5057.66600
7.99990	0.00000	5057.66600
8.00374	0.00000	5057.12800
8.00758	0.00000	5057.12800
8.01142	0.00000	5057.12800
8.01525	0.00000	5057.12800
8.01909	0.00000	5057.12800
8.02292	0.00000	5057.12800
8.02676	0.00000	5056.35200
8.03059	0.00000	5056.35200
8.03442	0.00000	5056.35200
8.03825	0.00000	5056.35200
8.04209	0.00000	5056.35200
8.04592	0.00000	5056.35200
8.04976	0.00000	5054.57000
8.05361	0.00000	5054.57000
8.05744	0.00000	5054.57000
8.06127	0.00000	5054.57000
8.06508	0.00000	5054.57000
8.06891	0.00000	5054.57000
8.07274	0.00000	5054.57000
8.07657	0.00000	5064.53800
8.08041	0.00000	5064.53800
8.08424	0.00000	5064.53800
8.08807	0.00000	5064.53800
8.09190	0.00000	5064.53800
8.09573	0.00000	5064.53800
8.09956	0.00000	5057.90200
8.10340	0.00000	5057.90200
8.10724	0.00000	5057.90200
8.11107	0.00000	5057.90200
8.11491	0.00000	5057.90200
8.11875	0.00000	5057.90200
8.12259	0.00000	5054.57000
8.12643	0.00000	5054.57000
8.13027	0.00000	5054.57000
8.13411	0.00000	5054.57000
8.13795	0.00000	5054.57000
8.14179	0.00000	5054.57000
8.14562	0.00000	5054.57000
8.14947	0.00000	5054.57000
8.15331	0.00000	5054.57000
8.15714	0.00000	5054.57000
8.16097	0.00000	5054.57000
8.16481	0.00000	5054.57000
8.16865	0.00000	5054.57000
8.17247	0.00000	5045.91800
8.17631	0.00000	5045.91800
8.18014	0.00000	5045.91800
8.18397	0.00000	5045.91800
8.18781	0.00000	5045.91800
8.19164	0.00000	5045.91800
8.19546	0.00000	5053.79100
8.19929	0.00000	5053.79100
8.20312	0.00000	5053.79100
8.20696	0.00000	5053.79100
8.21079	0.00000	5053.79100
8.21463	0.00000	5053.79100
8.21845	0.00000	5051.22900
8.22226	0.00000	5051.22900
8.22609	0.00000	5051.22900
8.22992	0.00000	5051.22900
8.23376	0.00000	5051.22900
8.23759	0.00000	5051.22900
8.24142	0.00000	5053.79100
8.24526	0.00000	5053.79100
8.24908	0.00000	5053.79100
8.25292	0.00000	5053.79100
8.25675	0.00000	5053.79100
8.26058	0.00000	5053.79100
8.26442	0.00000	5056.35200
8.26826	0.00000	5056.35200
8.27209	0.00000	5056.35200
8.27592	0.00000	5056.35200
8.27976	0.00000	5056.35200
8.28359	0.00000	5056.35200
8.28742	0.00000	5056.35200
8.29125	0.00000	5054.57000
8.29509	0.00000	5054.57000
8.29892	0.00000	5054.57000
8.30275	0.00000	5054.57000
8.30658	0.00000	5054.57000
8.31041	0.00000	5054.57000
8.31425	0.00000	5046.10600
8.31808	0.00000	5046.10600
8.32192	0.00000	5046.10600
8.32575	0.00000	5046.10600
8.32958	0.00000	5046.10600
8.33341	0.00000	5046.10600
8.33724	0.00000	5044.33800
8.34107	0.00000	5044.33800
8.34491	0.00000	5044.33800
8.34875	0.00000	5044.33800
8.35258	0.00000	5044.33800
8.35641	0.00000	5044.33800
8.36025	0.00000	5056.35200
8.36408	0.00000	5056.35200
8.36791	0.00000	5056.35200
8.37174	0.00000	5056.35200
8.37558	0.00000	5056.35200
8.37941	0.00000	5056.35200
8.38325	0.00000	5056.35200
8.38709	0.00000	5050.03400
8.39093	0.00000	5050.03400
8.39477	0.00000	5050.03400
8.39861	0.00000	5050.03400
8.40244	0.00000	5050.03400
8.40627	0.00000	5050.03400
8.41011	0.00000	5054.57000
8.41393	0.00000	5054.57000
8.41776	0.00000	5054.57000
8.42160	0.00000	5054.57000
8.42543	0.00000	5054.57000
8.42927	0.00000	5054.57000
8.43308	0.00000	5056.35200
8.43691	0.00000	5056.35200
8.44075	0.00000	5056.35200
8.44457	0.00000	5056.35200
8.44841	0.00000	5056.35200
8.45224	0.00000	5056.35200
8.45607	0.00000	5054.57000
8.45993	0.00000	5054.57000
8.46377	0.00000	5054.57000
8.46760	0.00000	5054.57000
8.47144	0.00000	5054.57000
8.47527	0.00000	5054.57000
8.47910	0.00000	5054.57000
8.48293	0.00000	5063.77500
8.48677	0.00000	5063.77500
8.49060	0.00000	5063.77500
8.49444	0.00000	5063.77500
8.49827	0.00000	5063.77500
8.50211	0.00000	5063.77500
8.50595	0.00000	5064.80200
8.50979	0.00000	5064.80200
8.51362	0.00000	5064.80200
8.51746	0.00000	5064.80200
8.52131	0.00000	5064.80200
8.52514	0.00000	5064.80200
8.52897	0.00000	5054.57000
8.53281	0.00000	5054.57000
8.53664	0.00000	5054.57000
8.54048	0.00000	5054.57000
8.54430	0.00000	5054.57000
8.54814	0.00000	5054.57000
8.55198	0.00000	5058.91400
8.55581	0.00000	5058.91400
8.55965	0.00000	5058.91400
8.56350	0.00000	5058.91400
8.56733	0.00000	5058.91400
8.57115	0.00000	5058.91400
8.57499	0.00000	5056.35200
8.57882	0.00000	5056.35200
8.58266	0.00000	5056.35200
8.58649	0.00000	5056.35200
8.59032	0.00000	5056.35200
8.59415	0.00000	5056.35200
8.59799	0.00000	5056.35200
8.60182	0.00000	5049.45400
8.60565	0.00000	5049.45400
8.60948	0.00000	5049.45400
8.61332	0.00000	5049.45400
8.61715	0.00000	5049.45400
8.62099	0.00000	5049.45400
8.62482	0.00000	5058.91400
8.62865	0.00000	5058.91400
8.63248	0.00000	5058.91400
8.63631	0.00000	5058.91400
8.64014	0.00000	5058.91400
8.64397	0.00000	5058.91400
8.64780	0.00000	5057.90200
8.65164	0.00000	5057.90200
8.65547	0.00000	5057.90200
8.65930	0.00000	5057.90200
8.66312	0.00000	5057.90200
8.66694	0.00000	5057.90200
8.67076	0.00000	5057.90200
8.67457	0.00000	5057.90200
8.67839	0.00000	5057.90200
8.68221	0.00000	5057.90200
8.68603	0.00000	5057.90200
8.68985	0.00000	5057.90200
8.69367	0.00000	5057.90200
8.69749	0.00000	5051.80000
8.70131	0.00000	5051.80000
8.70513	0.00000	5051.80000
8.70896	0.00000	5051.80000
8.71280	0.00000	5051.80000
8.71663	0.00000	5051.80000
8.72044	0.00000	5056.35200
8.72427	0.00000	5056.35200
8.72809	0.00000	5056.35200
8.73192	0.00000	5056.35200
8.73574	0.00000	5056.35200
8.73956	0.00000	5056.35200
8.74338	0.00000	5057.12800
8.74720	0.00000	5057.12800
8.75102	0.00000	5057.12800
8.75485	0.00000	5057.12800
8.75870	0.00000	5057.12800
8.76253	0.00000	5057.12800
8.76636	0.00000	5057.90200
8.77020	0.00000	5057.90200
8.77404	0.00000	5057.90200
8.77787	0.00000	5057.90200
8.78171	0.00000	5057.90200
8.78554	0.00000	5057.90200
8.78937	0.00000	5057.90200
8.79320	0.00000	5063.77500
8.79704	0.00000	5063.77500
8.80088	0.00000	5063.77500
8.80471	0.00000	5063.77500
8.80855	0.00000	5063.77500
8.81237	0.00000	5063.77500
8.81621	0.00000	5063.01100
8.82005	0.00000	5063.01100
8.82387	0.00000	5063.01100
8.82772	0.00000	5063.01100
8.83156	0.00000	5063.01100
8.83539	0.00000	5063.01100
8.83922	0.00000	5057.12800
8.84307	0.00000	5057.12800
8.84691	0.00000	5057.12800
8.85075	0.00000	5057.12800
8.85459	0.00000	5057.12800
8.85844	0.00000	5057.12800
8.86226	0.00000	5051.22900
8.86610	0.00000	5051.22900
8.86993	0.00000	5051.22900
8.87376	0.00000	5051.22900
8.87759	0.00000	5051.22900
8.88143	0.00000	5051.22900
8.88526	0.00000	5051.22900
8.88908	0.00000	5056.12200
8.89291	0.00000	5056.12200
8.89673	0.00000	5056.12200
8.90057	0.00000	5056.12200
8.90442	0.00000	5056.12200
8.90826	0.00000	5056.12200
8.91209	0.00000	5057.12800
8.91593	0.00000	5057.12800
8.91975	0.00000	5057.12800
8.92358	0.00000	5057.12800
8.92742	0.00000	5057.12800
8.93126	0.00000	5057.12800
8.93508	0.00000	5052.01200
8.93894	0.00000	5052.01200
8.94277	0.00000	5052.01200
8.94661	0.00000	5052.01200
8.95045	0.00000	5052.01200
8.95428	0.00000	5052.01200
8.95812	0.00000	5059.68600
8.96196	0.00000	5059.68600
8.96580	0.00000	5059.68600
8.96964	0.00000	5059.68600
8.97347	0.00000	5059.68600
8.97731	0.00000	5059.68600
8.98113	0.00000	5059.68600
8.98497	0.00000	5056.89500
8.98880	0.00000	5056.89500
8.99263	0.00000	5056.89500
8.99647	0.00000	5056.89500
9.00030	0.00000	5056.89500
9.00414	0.00000	5056.89500
9.00797	0.00000	5061.47500
9.01181	0.00000	5061.47500
9.01563	0.00000	5061.47500
9.01946	0.00000	5061.47500
9.02330	0.00000	5061.47500
9.02714	0.00000	5061.47500
9.03096	0.00000	5058.91400
9.03480	0.00000	5058.91400
9.03864	0.00000	5058.91400
9.04247	0.00000	5058.91400
9.04630	0.00000	5058.91400
9.05013	0.00000	5058.91400
9.05397	0.00000	5057.12800
9.05779	0.00000	5057.12800
9.06163	0.00000	5057.12800
9.06546	0.00000	5057.12800
9.06929	0.00000	5057.12800
9.07313	0.00000	5057.12800
9.07696	0.00000	5052.01200
9.08078	0.00000	5052.01200
9.08461	0.00000	5052.01200
9.08843	0.00000	5052.01200
9.09227	0.00000	5052.01200
9.09610	0.00000	5052.01200
9.09993	0.00000	5052.01200
9.10376	0.00000	5057.12800
9.10760	0.00000	5057.12800
9.11143	0.00000	5057.12800
9.11526	0.00000	5057.12800
9.11909	0.00000	5057.12800
9.12292	0.00000	5057.12800
9.12676	0.00000	5057.90200
9.13059	0.00000	5057.90200
9.13442	0.00000	5057.90200
9.13826	0.00000	5057.90200
9.14210	0.00000	5057.90200
9.14593	0.00000	5057.90200
9.14976	0.00000	5063.01100
9.15359	0.00000	5063.01100
9.15743	0.00000	5063.01100
9.16127	0.00000	5063.01100
9.16507	0.00000	5063.01100
9.16891	0.00000	5063.01100
9.17275	0.00000	5062.24400
9.17658	0.00000	5062.24400
9.18041	0.00000	5062.24400
9.18425	0.00000	5062.24400
9.18808	0.00000	5062.24400
9.19191	0.00000	5062.24400
9.19574	0.00000	5062.24400
9.19957	0.00000	5056.12200
9.20341	0.00000	5056.12200
9.20724	0.00000	5056.12200
9.21107	0.00000	5056.12200
9.21490	0.00000	5056.12200
9.21873	0.00000	5056.12200
9.22256	0.00000	5057.90200
9.22639	0.00000	5057.90200
9.23022	0.00000	5057.90200
9.23406	0.00000	5057.90200
9.23788	0.00000	5057.90200
9.24171	0.00000	5057.90200
9.24555	0.00000	5057.90200
9.24938	0.00000	5057.90200
9.25323	0.00000	5057.90200
9.25706	0.00000	5057.90200
9.26090	0.00000	5057.90200
9.26474	0.00000	5057.90200
9.26859	0.00000	5052.01200
9.27243	0.00000	5052.01200
9.27627	0.00000	5052.01200
9.28010	0.00000	5052.01200
9.28395	0.00000	5052.01200
9.28778	0.00000	5052.01200
9.29163	0.00000	5052.01200
9.29546	0.00000	5058.67300
9.29929	0.00000	5058.67300
9.30312	0.00000	5058.67300
9.30697	0.00000	5058.67300
9.31080	0.00000	5058.67300
9.31465	0.00000	5058.67300
9.31848	0.00000	5064.80200
9.32231	0.00000	5064.80200
9.32615	0.00000	5064.80200
9.32997	0.00000	5064.80200
9.33381	0.00000	5064.80200
9.33765	0.00000	5064.80200
9.34150	0.00000	5065.56500
9.34533	0.00000	5065.56500
9.34916	0.00000	5065.56500
9.35299	0.00000	5065.56500
9.35682	0.00000	5065.56500
9.36065	0.00000	5065.56500
9.36448	0.00000	5059.68600
9.36834	0.00000	5059.68600
9.37217	0.00000	5059.68600
9.37600	0.00000	5059.68600
9.37984	0.00000	5059.68600
9.38369	0.00000	5059.68600
9.38752	0.00000	5059.68600
9.39136	0.00000	5057.66600
9.39519	0.00000	5057.66600
9.39903	0.00000	5057.66600
9.40286	0.00000	5057.66600
9.40669	0.00000	5057.66600
9.41053	0.00000	5057.66600
9.41436	0.00000	5057.90200
9.41820	0.00000	5057.90200
9.42204	0.00000	5057.90200
9.42587	0.00000	5057.90200
9.42970	0.00000	5057.90200
9.43354	0.00000	5057.90200
9.43736	0.00000	5067.36000
9.44120	0.00000	5067.36000
9.44503	0.00000	5067.36000
9.44887	0.00000	5067.36000
9.45269	0.00000	5067.36000
9.45653	0.00000	5067.36000
9.46036	0.00000	5064.80200
9.46419	0.00000	5064.80200
9.46803	0.00000	5064.80200
9.47187	0.00000	5064.80200
9.47570	0.00000	5064.80200
9.47955	0.00000	5064.80200
9.48339	0.00000	5064.80200
9.48722	0.00000	5057.66600
9.49106	0.00000	5057.66600
9.49489	0.00000	5057.66600
9.49873	0.00000	5057.66600
9.50256	0.00000	5057.66600
9.50639	0.00000	5057.66600
9.51023	0.00000	5052.01200
9.51407	0.00000	5052.01200
9.51790	0.00000	5052.01200
9.52174	0.00000	5052.01200
9.52556	0.00000	5052.01200
9.52940	0.00000	5052.01200
9.53323	0.00000	5053.79100
9.53706	0.00000	5053.79100
9.54090	0.00000	5053.79100
9.54474	0.00000	5053.79100
9.54857	0.00000	5053.79100
9.55241	0.00000	5053.79100
9.55624	0.00000	5054.57000
9.56008	0.00000	5054.57000
9.56392	0.00000	5054.57000
9.56775	0.00000	5054.57000
9.57158	0.00000	5054.57000
9.57541	0.00000	5054.57000
9.57925	0.00000	5057.12800
9.58307	0.00000	5057.12800
9.58690	0.00000	5057.12800
9.59074	0.00000	5057.12800
9.59458	0.00000	5057.12800
9.59842	0.00000	5057.12800
9.60226	0.00000	5057.12800
9.60610	0.00000	5049.45400
9.60993	0.00000	5049.45400
9.61377	0.00000	5049.45400
9.61760	0.00000	5049.45400
9.62144	0.00000	5049.45400
9.62528	0.00000	5049.45400
9.62908	0.00000	5059.68600
9.63292	0.00000	5059.68600
9.63675	0.00000	5059.68600
9.64059	0.00000	5059.68600
9.64443	0.00000	5059.68600
9.64826	0.00000	5059.68600
9.65211	0.00000	5052.01200
9.65594	0.00000	5052.01200
9.65979	0.00000	5052.01200
9.66362	0.00000	5052.01200
9.66747	0.00000	5052.01200
9.67130	0.00000	5052.01200
9.67513	0.00000	5048.66800
9.67896	0.00000	5048.66800
9.68280	0.00000	5048.66800
9.68664	0.00000	5048.66800
9.69047	0.00000	5048.66800
9.69430	0.00000	5048.66800
9.69814	0.00000	5048.66800
9.70197	0.00000	5048.46900
9.70580	0.00000	5048.46900
9.70964	0.00000	5048.46900
9.71346	0.00000	5048.46900
9.71730	0.00000	5048.46900
9.72114	0.00000	5048.46900
9.72496	0.00000	5048.66800
9.72880	0.00000	5048.66800
9.73262	0.00000	5048.66800
9.73645	0.00000	5048.66800
9.74029	0.00000	5048.66800
9.74411	0.00000	5048.66800
9.74796	0.00000	5046.10600
9.75179	0.00000	5046.10600
9.75562	0.00000	5046.10600
9.75944	0.00000	5046.10600
9.76328	0.00000	5046.10600
9.76711	0.00000	5046.10600
9.77095	0.00000	5046.10600
9.77480	0.00000	5046.10600
9.77863	0.00000	5046.10600
9.78246	0.00000	5046.10600
9.78629	0.00000	5046.10600
9.79013	0.00000	5046.10600
9.79397	0.00000	5046.10600
9.79779	0.00000	5043.36700
9.80163	0.00000	5043.36700
9.80546	0.00000	5043.36700
9.80930	0.00000	5043.36700
9.81314	0.00000	5043.36700
9.81698	0.00000	5043.36700
9.82082	0.00000	5059.68600
9.82466	0.00000	5059.68600
9.82850	0.00000	5059.68600
9.83233	0.00000	5059.68600
9.83617	0.00000	5059.68600
9.83999	0.00000	5059.68600
9.84382	0.00000	5060.45600
9.84765	0.00000	5060.45600
9.85149	0.00000	5060.45600
9.85532	0.00000	5060.45600
9.85916	0.00000	5060.45600
9.86299	0.00000	5060.45600
9.86683	0.00000	5062.24400
9.87066	0.00000	5062.24400
9.87450	0.00000	5062.24400
9.87833	0.00000	5062.24400
9.88216	0.00000	5062.24400
9.88599	0.00000	5062.24400
9.88982	0.00000	5060.45600
9.89364	0.00000	5060.45600
9.89748	0.00000	5060.45600
9.90131	0.00000	5060.45600
9.90514	0.00000	5060.45600
9.90898	0.00000	5060.45600
9.91281	0.00000	5060.45600
9.91665	0.00000	5064.80200
9.92051	0.00000	5064.80200
9.92434	0.00000	5064.80200
9.92817	0.00000	5064.80200
9.93200	0.00000	5064.80200
9.93584	0.00000	5064.80200
9.93967	0.00000	5063.01100
9.94350	0.00000	5063.01100
9.94733	0.00000	5063.01100
9.95118	0.00000	5063.01100
9.95501	0.00000	5063.01100
9.95885	0.00000	5063.01100
9.96269	0.00000	5068.11900
9.96651	0.00000	5068.11900
9.97034	0.00000	5068.11900
9.97417	0.00000	5068.11900
9.97801	0.00000	5068.11900
9.98185	0.00000	5068.11900
9.98568	0.00000	5060.45600
9.98951	0.00000	5060.45600
9.99334	0.00000	5060.45600
9.99717	0.00000	5060.45600
