Time (s)   Thrust (N)   RPM
0.00028	0.00000	4738.88800
0.00417	0.00000	4738.88800
0.00803	0.00000	4747.93800
0.01189	0.00000	4747.93800
0.01575	0.00000	4747.93800
0.01959	0.00000	4747.93800
0.02353	0.00000	4747.93800
0.02737	0.00000	4747.93800
0.03120	0.00000	4719.35000
0.03503	0.00000	4719.35000
0.03886	0.00000	4719.35000
0.04269	0.00000	4719.35000
0.04652	0.00000	4719.35000
0.05036	0.00000	4719.35000
0.05418	0.00000	4571.91800
0.05801	0.00000	4571.91800
0.06184	0.00000	4571.91800
0.06566	0.00000	4571.91800
0.06949	0.00000	4571.91800
0.07332	0.00000	4437.20300
0.07714	0.00000	4437.20300
0.08096	0.00000	4437.20300
0.08478	0.00000	4437.20300
0.08860	0.00000	4437.20300
0.09245	0.00000	4306.11800
0.09627	0.00000	4306.11800
0.10010	0.00000	4306.11800
0.10393	0.00000	4306.11800
0.10777	0.00000	4306.11800
0.11160	0.00000	4306.11800
0.11542	0.00000	4200.12400
0.11925	0.00000	4200.12400
0.12308	0.00000	4200.12400
0.12691	0.00000	4200.12400
0.13074	0.00000	4200.12400
0.13457	0.00000	4111.06400
0.13839	0.00000	4111.06400
0.14222	0.00000	4111.06400
0.14604	0.00000	4111.06400
0.14986	0.00000	4111.06400
0.15368	0.00000	4039.94800
0.15752	0.00000	4039.94800
0.16135	0.00000	4039.94800
0.16518	0.00000	4039.94800
0.16900	0.00000	3972.51300
0.17283	0.00000	3972.51300
0.17665	0.00000	3972.51300
0.18048	0.00000	3972.51300
0.18430	0.00000	3972.51300
0.18813	0.00000	3912.03700
0.19194	0.00000	3912.03700
0.19577	0.00000	3912.03700
0.19959	0.00000	3912.03700
0.20342	0.00000	3912.03700
0.20724	0.00000	3859.51300
0.21107	0.00000	3859.51300
0.21490	0.00000	3859.51300
0.21872	0.00000	3859.51300
0.22254	0.00000	3859.51300
0.22637	0.00000	3823.52900
0.23019	0.00000	3823.52900
0.23402	0.00000	3823.52900
0.23786	0.00000	3823.52900
0.24168	0.00000	3823.52900
0.24550	0.00000	3787.09500
0.24933	0.00000	3787.09500
0.25315	0.00000	3787.09500
0.25697	0.00000	3787.09500
0.26080	0.00000	3746.59000
0.26462	0.00000	3746.59000
0.26843	0.00000	3746.59000
0.27226	0.00000	3746.59000
0.27609	0.00000	3746.59000
0.27990	0.00000	3719.15000
0.28373	0.00000	3719.15000
0.28755	0.00000	3719.15000
0.29138	0.00000	3719.15000
0.29520	0.00000	3719.15000
0.29903	0.00000	3688.29900
0.30286	0.00000	3688.29900
0.30668	0.00000	3688.29900
0.31051	0.00000	3688.29900
0.31433	0.00000	3666.82000
0.31816	0.00000	3666.82000
0.32198	0.00000	3666.82000
0.32581	0.00000	3666.82000
0.32963	0.00000	3666.82000
0.33345	0.00000	3652.77700
0.33730	0.00000	3652.77700
0.34112	0.00000	3652.77700
0.34495	0.00000	3652.77700
0.34879	0.00000	3652.77700
0.35261	0.00000	3628.69600
0.35645	0.00000	3628.69600
0.36027	0.00000	3628.69600
0.36411	0.00000	3628.69600
0.36793	0.00000	3610.07400
0.37178	0.00000	3610.07400
0.37560	0.00000	3610.07400
0.37943	0.00000	3610.07400
0.38325	0.00000	3610.07400
0.38707	0.00000	3596.65400
0.39091	0.00000	3596.65400
0.39475	0.00000	3596.65400
0.39857	0.00000	3596.65400
0.40241	0.00000	3596.65400
0.40622	0.00000	3595.79400
0.41006	0.00000	3595.79400
0.41389	0.00000	3595.79400
0.41772	0.00000	3595.79400
0.42155	0.00000	3570.59100
0.42537	0.00000	3570.59100
0.42922	0.00000	3570.59100
0.43305	0.00000	3570.59100
0.43687	0.00000	3570.59100
0.44070	0.00000	3571.26100
0.44454	0.00000	3571.26100
0.44835	0.00000	3571.26100
0.45218	0.00000	3571.26100
0.45601	0.00000	3566.38400
0.45984	0.00000	3566.38400
0.46367	0.00000	3566.38400
0.46750	0.00000	3566.38400
0.47133	0.00000	3566.38400
0.47515	0.00000	3556.88200
0.47898	0.00000	3556.88200
0.48281	0.00000	3556.88200
0.48663	0.00000	3556.88200
0.49046	0.00000	3558.60100
0.49430	0.00000	3558.60100
0.49812	0.00000	3558.60100
0.50194	0.00000	3558.60100
0.50577	0.00000	3558.60100
0.50960	0.00000	3549.10700
0.51342	0.00000	3549.10700
0.51726	0.00000	3549.10700
0.52108	0.00000	3549.10700
0.52491	0.00000	3547.58500
0.52874	0.00000	3547.58500
0.53256	0.00000	3547.58500
0.53639	0.00000	3547.58500
0.54021	0.00000	3547.58500
0.54404	0.00000	3540.48300
0.54786	0.00000	3540.48300
0.55168	0.00000	3540.48300
0.55551	0.00000	3540.48300
0.55934	0.00000	3540.48300
0.56316	0.00000	3533.38000
0.56698	0.00000	3533.38000
0.57081	0.00000	3533.38000
0.57465	0.00000	3533.38000
0.57848	0.00000	3529.41100
0.58231	0.00000	3529.41100
0.58614	0.00000	3529.41100
0.58997	0.00000	3529.41100
0.59379	0.00000	3529.41100
0.59761	0.00000	3523.58500
0.60145	0.00000	3523.58500
0.60527	0.00000	3523.58500
0.60909	0.00000	3523.58500
0.61291	0.00000	3522.29600
0.61673	0.00000	3522.29600
0.62057	0.00000	3522.29600
0.62439	0.00000	3522.29600
0.62821	0.00000	3522.29600
0.63203	0.00000	3516.06800
0.63586	0.00000	3516.06800
0.63969	0.00000	3516.06800
0.64351	0.00000	3516.06800
0.64734	0.00000	3508.06400
0.65116	0.00000	3508.06400
0.65499	0.00000	3508.06400
0.65882	0.00000	3508.06400
0.66266	0.00000	3508.06400
0.66648	0.00000	3508.97900
0.67031	0.00000	3508.97900
0.67413	0.00000	3508.97900
0.67794	0.00000	3508.97900
0.68177	0.00000	3508.06400
0.68560	0.00000	3508.06400
0.68943	0.00000	3508.06400
0.69324	0.00000	3508.06400
0.69707	0.00000	3508.06400
0.70090	0.00000	3512.52300
0.70473	0.00000	3512.52300
0.70855	0.00000	3512.52300
0.71238	0.00000	3512.52300
0.71620	0.00000	3500.00000
0.72002	0.00000	3500.00000
0.72384	0.00000	3500.00000
0.72766	0.00000	3500.00000
0.73149	0.00000	3500.00000
0.73531	0.00000	3501.89000
0.73913	0.00000	3501.89000
0.74295	0.00000	3501.89000
0.74677	0.00000	3501.89000
0.75060	0.00000	3503.57100
0.75442	0.00000	3503.57100
0.75824	0.00000	3503.57100
0.76207	0.00000	3503.57100
0.76590	0.00000	3503.57100
0.76973	0.00000	3501.89000
0.77356	0.00000	3501.89000
0.77738	0.00000	3501.89000
0.78121	0.00000	3501.89000
0.78503	0.00000	3500.00000
0.78887	0.00000	3500.00000
0.79269	0.00000	3500.00000
0.79651	0.00000	3500.00000
0.80034	0.00000	3500.00000
0.80417	0.00000	3494.80100
0.80800	0.00000	3494.80100
0.81182	0.00000	3494.80100
0.81564	0.00000	3494.80100
0.81946	0.00000	3496.42800
0.82329	0.00000	3496.42800
0.82712	0.00000	3496.42800
0.83094	0.00000	3496.42800
0.83477	0.00000	3496.42800
0.83859	0.00000	3494.31800
0.84242	0.00000	3494.31800
0.84625	0.00000	3494.31800
0.85007	0.00000	3494.31800
0.85389	0.00000	3495.94400
0.85771	0.00000	3495.94400
0.86154	0.00000	3495.94400
0.86537	0.00000	3495.94400
0.86919	0.00000	3495.94400
0.87302	0.00000	3490.27500
0.87685	0.00000	3490.27500
0.88068	0.00000	3490.27500
0.88450	0.00000	3490.27500
0.88833	0.00000	3495.94400
0.89215	0.00000	3495.94400
0.89594	0.00000	3495.94400
0.89977	0.00000	3495.94400
0.90359	0.00000	3495.94400
0.90742	0.00000	3493.34600
0.91123	0.00000	3493.34600
0.91505	0.00000	3493.34600
0.91887	0.00000	3493.34600
0.92270	0.00000	3492.85700
0.92653	0.00000	3492.85700
0.93036	0.00000	3492.85700
0.93418	0.00000	3492.85700
0.93801	0.00000	3492.85700
0.94182	0.00000	3489.78100
0.94564	0.00000	3489.78100
0.94946	0.00000	3489.78100
0.95328	0.00000	3489.78100
0.95711	0.00000	3488.78800
0.96093	0.00000	3488.78800
0.96475	0.00000	3488.78800
0.96858	0.00000	3488.78800
0.97240	0.00000	3488.78800
0.97622	0.00000	3492.85700
0.98004	0.00000	3492.85700
0.98387	0.00000	3492.85700
0.98768	0.00000	3492.85700
0.99150	0.00000	3488.78800
0.99532	0.00000	3488.78800
0.99914	0.00000	3488.78800
1.00297	0.00000	3488.78800
1.00680	0.00000	3488.78800
1.01062	0.00000	3492.85700
1.01444	0.00000	3492.85700
1.01827	0.00000	3492.85700
1.02208	0.00000	3492.85700
1.02590	0.00000	3492.85700
1.02972	0.00000	3489.78100
1.03355	0.00000	3489.78100
1.03737	0.00000	3489.78100
1.04119	0.00000	3489.78100
1.04502	0.00000	3485.71400
1.04885	0.00000	3485.71400
1.05267	0.00000	3485.71400
1.05649	0.00000	3485.71400
1.06032	0.00000	3485.71400
1.06414	0.00000	3493.34600
1.06794	0.00000	3493.34600
1.07177	0.00000	3493.34600
1.07559	0.00000	3493.34600
1.07941	0.00000	3492.36600
1.08324	0.00000	3492.36600
1.08707	0.00000	3492.36600
1.09089	0.00000	3492.36600
1.09472	0.00000	3492.36600
1.09854	0.00000	3496.91000
1.10238	0.00000	3496.91000
1.10620	0.00000	3496.91000
1.11002	0.00000	3496.91000
1.11385	0.00000	3492.36600
1.11768	0.00000	3492.36600
1.12150	0.00000	3492.36600
1.12532	0.00000	3492.36600
1.12915	0.00000	3492.36600
1.13297	0.00000	3487.21500
1.13681	0.00000	3487.21500
1.14063	0.00000	3487.21500
1.14445	0.00000	3487.21500
1.14827	0.00000	3492.36600
1.15209	0.00000	3492.36600
1.15591	0.00000	3492.36600
1.15974	0.00000	3492.36600
1.16356	0.00000	3492.36600
1.16739	0.00000	3493.83300
1.17121	0.00000	3493.83300
1.17503	0.00000	3493.83300
1.17886	0.00000	3493.83300
1.18268	0.00000	3488.78800
1.18651	0.00000	3488.78800
1.19035	0.00000	3488.78800
1.19417	0.00000	3488.78800
1.19800	0.00000	3488.78800
1.20183	0.00000	3493.83300
1.20565	0.00000	3493.83300
1.20947	0.00000	3493.83300
1.21329	0.00000	3493.83300
1.21711	0.00000	3492.36600
1.22094	0.00000	3492.36600
1.22477	0.00000	3492.36600
1.22859	0.00000	3492.36600
1.23243	0.00000	3492.36600
1.23625	0.00000	3493.83300
1.24007	0.00000	3493.83300
1.24390	0.00000	3493.83300
1.24772	0.00000	3493.83300
1.25155	0.00000	3488.78800
1.25538	0.00000	3488.78800
1.25920	0.00000	3488.78800
1.26302	0.00000	3488.78800
1.26686	0.00000	3488.78800
1.27068	0.00000	3493.83300
1.27451	0.00000	3493.83300
1.27835	0.00000	3493.83300
1.28217	0.00000	3493.83300
1.28598	0.00000	3492.36600
1.28981	0.00000	3492.36600
1.29363	0.00000	3492.36600
1.29745	0.00000	3492.36600
1.30127	0.00000	3492.36600
1.30509	0.00000	3490.27500
1.30892	0.00000	3490.27500
1.31275	0.00000	3490.27500
1.31658	0.00000	3490.27500
1.32040	0.00000	3488.78800
1.32423	0.00000	3488.78800
1.32805	0.00000	3488.78800
1.33187	0.00000	3488.78800
1.33570	0.00000	3488.78800
1.33952	0.00000	3497.39000
1.34336	0.00000	3497.39000
1.34718	0.00000	3497.39000
1.35100	0.00000	3497.39000
1.35483	0.00000	3481.63100
1.35865	0.00000	3481.63100
1.36248	0.00000	3481.63100
1.36630	0.00000	3481.63100
1.37012	0.00000	3481.63100
1.37395	0.00000	3487.21500
1.37777	0.00000	3487.21500
1.38160	0.00000	3487.21500
1.38543	0.00000	3487.21500
1.38925	0.00000	3485.21000
1.39308	0.00000	3485.21000
1.39692	0.00000	3485.21000
1.40074	0.00000	3485.21000
1.40456	0.00000	3485.21000
1.40839	0.00000	3490.27500
1.41221	0.00000	3490.27500
1.41604	0.00000	3490.27500
1.41987	0.00000	3490.27500
1.42369	0.00000	3485.21000
1.42751	0.00000	3485.21000
1.43134	0.00000	3485.21000
1.43516	0.00000	3485.21000
1.43898	0.00000	3485.21000
1.44280	0.00000	3480.11300
1.44663	0.00000	3480.11300
1.45045	0.00000	3480.11300
1.45428	0.00000	3480.11300
1.45810	0.00000	3488.78800
1.46193	0.00000	3488.78800
1.46575	0.00000	3488.78800
1.46958	0.00000	3488.78800
1.47341	0.00000	3488.78800
1.47723	0.00000	3487.21500
1.48105	0.00000	3487.21500
1.48488	0.00000	3487.21500
1.48870	0.00000	3487.21500
1.49253	0.00000	3492.36600
1.49638	0.00000	3492.36600
1.50020	0.00000	3492.36600
1.50402	0.00000	3492.36600
1.50784	0.00000	3492.36600
1.51166	0.00000	3490.27500
1.51551	0.00000	3490.27500
1.51933	0.00000	3490.27500
1.52315	0.00000	3490.27500
1.52698	0.00000	3495.45800
1.53081	0.00000	3495.45800
1.53463	0.00000	3495.45800
1.53845	0.00000	3495.45800
1.54227	0.00000	3495.45800
1.54610	0.00000	3486.71700
1.54993	0.00000	3486.71700
1.55375	0.00000	3486.71700
1.55757	0.00000	3486.71700
1.56140	0.00000	3489.28500
1.56523	0.00000	3489.28500
1.56905	0.00000	3489.28500
1.57288	0.00000	3489.28500
1.57671	0.00000	3489.28500
1.58053	0.00000	3490.76600
1.58436	0.00000	3490.76600
1.58819	0.00000	3490.76600
1.59201	0.00000	3490.76600
1.59583	0.00000	3495.94400
1.59966	0.00000	3495.94400
1.60348	0.00000	3495.94400
1.60729	0.00000	3495.94400
1.61112	0.00000	3495.94400
1.61494	0.00000	3490.76600
1.61877	0.00000	3490.76600
1.62259	0.00000	3490.76600
1.62641	0.00000	3490.76600
1.63023	0.00000	3492.36600
1.63406	0.00000	3492.36600
1.63789	0.00000	3492.36600
1.64172	0.00000	3492.36600
1.64554	0.00000	3492.36600
1.64936	0.00000	3497.39000
1.65319	0.00000	3497.39000
1.65701	0.00000	3497.39000
1.66083	0.00000	3497.39000
1.66465	0.00000	3492.36600
1.66849	0.00000	3492.36600
1.67230	0.00000	3492.36600
1.67612	0.00000	3492.36600
1.67994	0.00000	3492.36600
1.68377	0.00000	3490.27500
1.68759	0.00000	3490.27500
1.69141	0.00000	3490.27500
1.69523	0.00000	3490.27500
1.69905	0.00000	3488.28800
1.70288	0.00000	3488.28800
1.70670	0.00000	3488.28800
1.71052	0.00000	3488.28800
1.71434	0.00000	3488.28800
1.71816	0.00000	3486.21600
1.72199	0.00000	3486.21600
1.72581	0.00000	3486.21600
1.72963	0.00000	3486.21600
1.73345	0.00000	3485.21000
1.73728	0.00000	3485.21000
1.74111	0.00000	3485.21000
1.74494	0.00000	3485.21000
1.74877	0.00000	3485.21000
1.75259	0.00000	3500.00000
1.75643	0.00000	3500.00000
1.76026	0.00000	3500.00000
1.76408	0.00000	3500.00000
1.76791	0.00000	3492.36600
1.77174	0.00000	3492.36600
1.77556	0.00000	3492.36600
1.77939	0.00000	3492.36600
1.78321	0.00000	3492.36600
1.78703	0.00000	3489.78100
1.79087	0.00000	3489.78100
1.79469	0.00000	3489.78100
1.79851	0.00000	3489.78100
1.80233	0.00000	3492.36600
1.80616	0.00000	3492.36600
1.80999	0.00000	3492.36600
1.81381	0.00000	3492.36600
1.81763	0.00000	3492.36600
1.82145	0.00000	3489.28500
1.82528	0.00000	3489.28500
1.82911	0.00000	3489.28500
1.83293	0.00000	3489.28500
1.83675	0.00000	3488.78800
1.84057	0.00000	3488.78800
1.84440	0.00000	3488.78800
1.84823	0.00000	3488.78800
1.85205	0.00000	3488.78800
1.85587	0.00000	3492.85700
1.85970	0.00000	3492.85700
1.86352	0.00000	3492.85700
1.86734	0.00000	3492.85700
1.87116	0.00000	3491.87300
1.87498	0.00000	3491.87300
1.87880	0.00000	3491.87300
1.88262	0.00000	3491.87300
1.88644	0.00000	3491.87300
1.89026	0.00000	3481.63100
1.89409	0.00000	3481.63100
1.89791	0.00000	3481.63100
1.90174	0.00000	3481.63100
1.90556	0.00000	3492.36600
1.90938	0.00000	3492.36600
1.91320	0.00000	3492.36600
1.91702	0.00000	3492.36600
1.92085	0.00000	3492.36600
1.92468	0.00000	3488.78800
1.92850	0.00000	3488.78800
1.93232	0.00000	3488.78800
1.93616	0.00000	3488.78800
1.93994	0.00000	3485.21000
1.94376	0.00000	3485.21000
1.94758	0.00000	3485.21000
1.95142	0.00000	3485.21000
1.95524	0.00000	3485.21000
1.95906	0.00000	3488.78800
1.96288	0.00000	3488.78800
1.96671	0.00000	3488.78800
1.97054	0.00000	3488.78800
1.97436	0.00000	3488.78800
1.97818	0.00000	3488.78800
1.98201	0.00000	3488.78800
1.98583	0.00000	3488.78800
1.98965	0.00000	3488.78800
1.99348	0.00000	3485.71400
1.99730	0.00000	3485.71400
2.00112	0.00000	3485.71400
2.00494	0.00000	3485.71400
2.00877	0.00000	3485.71400
2.01258	0.00000	3489.28500
2.01640	0.00000	3489.28500
2.02023	0.00000	3489.28500
2.02406	0.00000	3489.28500
2.02787	0.00000	3485.21000
2.03169	0.00000	3485.21000
2.03551	0.00000	3485.21000
2.03934	0.00000	3485.21000
2.04316	0.00000	3485.21000
2.04698	0.00000	3492.85700
2.05081	0.00000	3492.85700
2.05464	0.00000	3492.85700
2.05846	0.00000	3492.85700
2.06229	0.00000	3491.87300
2.06611	0.00000	3491.87300
2.06993	0.00000	3491.87300
2.07375	0.00000	3491.87300
2.07757	0.00000	3491.87300
2.08139	0.00000	3486.21600
2.08522	0.00000	3486.21600
2.08905	0.00000	3486.21600
2.09287	0.00000	3486.21600
2.09669	0.00000	3489.28500
2.10051	0.00000	3489.28500
2.10434	0.00000	3489.28500
2.10815	0.00000	3489.28500
2.11194	0.00000	3489.28500
2.11576	0.00000	3490.27500
2.11958	0.00000	3490.27500
2.12341	0.00000	3490.27500
2.12723	0.00000	3490.27500
2.13105	0.00000	3488.28800
2.13487	0.00000	3488.28800
2.13870	0.00000	3488.28800
2.14253	0.00000	3488.28800
2.14636	0.00000	3488.28800
2.15017	0.00000	3490.27500
2.15400	0.00000	3490.27500
2.15782	0.00000	3490.27500
2.16164	0.00000	3490.27500
2.16547	0.00000	3491.87300
2.16929	0.00000	3491.87300
2.17312	0.00000	3491.87300
2.17695	0.00000	3491.87300
2.18078	0.00000	3491.87300
2.18460	0.00000	3497.39000
2.18843	0.00000	3497.39000
2.19226	0.00000	3497.39000
2.19609	0.00000	3497.39000
2.19991	0.00000	3495.94400
2.20375	0.00000	3495.94400
2.20757	0.00000	3495.94400
2.21140	0.00000	3495.94400
2.21522	0.00000	3495.94400
2.21905	0.00000	3490.76600
2.22287	0.00000	3490.76600
2.22669	0.00000	3490.76600
2.23051	0.00000	3490.76600
2.23433	0.00000	3485.21000
2.23815	0.00000	3485.21000
2.24197	0.00000	3485.21000
2.24579	0.00000	3485.21000
2.24962	0.00000	3485.21000
2.25345	0.00000	3494.31800
2.25727	0.00000	3494.31800
2.26108	0.00000	3494.31800
2.26490	0.00000	3494.31800
2.26873	0.00000	3488.78800
2.27255	0.00000	3488.78800
2.27638	0.00000	3488.78800
2.28023	0.00000	3488.78800
2.28407	0.00000	3488.78800
2.28790	0.00000	3490.76600
2.29173	0.00000	3490.76600
2.29556	0.00000	3490.76600
2.29938	0.00000	3490.76600
2.30320	0.00000	3481.63100
2.30702	0.00000	3481.63100
2.31085	0.00000	3481.63100
2.31468	0.00000	3481.63100
2.31850	0.00000	3481.63100
2.32232	0.00000	3494.31800
2.32614	0.00000	3494.31800
2.32996	0.00000	3494.31800
2.33380	0.00000	3494.31800
2.33765	0.00000	3495.94400
2.34150	0.00000	3495.94400
2.34533	0.00000	3495.94400
2.34916	0.00000	3495.94400
2.35299	0.00000	3495.94400
2.35682	0.00000	3490.76600
2.36065	0.00000	3490.76600
2.36447	0.00000	3490.76600
2.36829	0.00000	3490.76600
2.37212	0.00000	3488.78800
2.37594	0.00000	3488.78800
2.37976	0.00000	3488.78800
2.38358	0.00000	3488.78800
2.38740	0.00000	3488.78800
2.39123	0.00000	3487.21500
2.39505	0.00000	3487.21500
2.39888	0.00000	3487.21500
2.40271	0.00000	3487.21500
2.40654	0.00000	3499.52200
2.41037	0.00000	3499.52200
2.41420	0.00000	3499.52200
2.41802	0.00000	3499.52200
2.42184	0.00000	3499.52200
2.42566	0.00000	3490.76600
2.42948	0.00000	3490.76600
2.43330	0.00000	3490.76600
2.43712	0.00000	3490.76600
2.44095	0.00000	3495.94400
2.44477	0.00000	3495.94400
2.44860	0.00000	3495.94400
2.45242	0.00000	3495.94400
2.45625	0.00000	3495.94400
2.46007	0.00000	3493.83300
2.46390	0.00000	3493.83300
2.46773	0.00000	3493.83300
2.47156	0.00000	3493.83300
2.47538	0.00000	3492.36600
2.47921	0.00000	3492.36600
2.48303	0.00000	3492.36600
2.48685	0.00000	3492.36600
2.49068	0.00000	3492.36600
2.49451	0.00000	3486.71700
2.49833	0.00000	3486.71700
2.50216	0.00000	3486.71700
2.50599	0.00000	3486.71700
2.50981	0.00000	3492.36600
2.51364	0.00000	3492.36600
2.51746	0.00000	3492.36600
2.52129	0.00000	3492.36600
2.52511	0.00000	3492.36600
2.52895	0.00000	3487.21500
2.53277	0.00000	3487.21500
2.53658	0.00000	3487.21500
2.54040	0.00000	3487.21500
2.54423	0.00000	3492.36600
2.54806	0.00000	3492.36600
2.55189	0.00000	3492.36600
2.55571	0.00000	3492.36600
2.55954	0.00000	3492.36600
2.56337	0.00000	3490.76600
2.56719	0.00000	3490.76600
2.57101	0.00000	3490.76600
2.57483	0.00000	3490.76600
2.57866	0.00000	3495.94400
2.58249	0.00000	3495.94400
2.58632	0.00000	3495.94400
2.59014	0.00000	3495.94400
2.59396	0.00000	3495.94400
2.59779	0.00000	3493.83300
2.60161	0.00000	3493.83300
2.60544	0.00000	3493.83300
2.60927	0.00000	3493.83300
2.61310	0.00000	3499.04400
2.61693	0.00000	3499.04400
2.62075	0.00000	3499.04400
2.62458	0.00000	3499.04400
2.62840	0.00000	3499.04400
2.63222	0.00000	3494.31800
2.63604	0.00000	3494.31800
2.63986	0.00000	3494.31800
2.64368	0.00000	3494.31800
2.64751	0.00000	3492.36600
2.65134	0.00000	3492.36600
2.65516	0.00000	3492.36600
2.65899	0.00000	3492.36600
2.66280	0.00000	3492.36600
2.66663	0.00000	3497.39000
2.67045	0.00000	3497.39000
2.67427	0.00000	3497.39000
2.67810	0.00000	3497.39000
2.68193	0.00000	3489.28500
2.68577	0.00000	3489.28500
2.68959	0.00000	3489.28500
2.69342	0.00000	3489.28500
2.69724	0.00000	3489.28500
2.70107	0.00000	3496.91000
2.70489	0.00000	3496.91000
2.70871	0.00000	3496.91000
2.71254	0.00000	3496.91000
2.71636	0.00000	3499.52200
2.72019	0.00000	3499.52200
2.72401	0.00000	3499.52200
2.72783	0.00000	3499.52200
2.73166	0.00000	3499.52200
2.73548	0.00000	3479.08700
2.73930	0.00000	3479.08700
2.74312	0.00000	3479.08700
2.74694	0.00000	3479.08700
2.75077	0.00000	3495.94400
2.75459	0.00000	3495.94400
2.75842	0.00000	3495.94400
2.76224	0.00000	3495.94400
2.76606	0.00000	3495.94400
2.76988	0.00000	3493.34600
2.77371	0.00000	3493.34600
2.77753	0.00000	3493.34600
2.78136	0.00000	3493.34600
2.78519	0.00000	3499.52200
2.78901	0.00000	3499.52200
2.79283	0.00000	3499.52200
2.79665	0.00000	3499.52200
2.80048	0.00000	3499.52200
2.80429	0.00000	3492.85700
2.80812	0.00000	3492.85700
2.81194	0.00000	3492.85700
2.81577	0.00000	3492.85700
2.81959	0.00000	3485.71400
2.82341	0.00000	3485.71400
2.82722	0.00000	3485.71400
2.83104	0.00000	3485.71400
2.83486	0.00000	3485.71400
2.83868	0.00000	3488.78800
2.84250	0.00000	3488.78800
2.84633	0.00000	3488.78800
2.85015	0.00000	3488.78800
2.85397	0.00000	3488.78800
2.85779	0.00000	3493.34600
2.86161	0.00000	3493.34600
2.86544	0.00000	3493.34600
2.86927	0.00000	3493.34600
2.87310	0.00000	3503.10100
2.87693	0.00000	3503.10100
2.88075	0.00000	3503.10100
2.88457	0.00000	3503.10100
2.88839	0.00000	3503.10100
2.89221	0.00000	3496.91000
2.89603	0.00000	3496.91000
2.89986	0.00000	3496.91000
2.90369	0.00000	3496.91000
2.90751	0.00000	3492.85700
2.91134	0.00000	3492.85700
2.91517	0.00000	3492.85700
2.91900	0.00000	3492.85700
2.92283	0.00000	3492.85700
2.92664	0.00000	3500.94800
2.93047	0.00000	3500.94800
2.93429	0.00000	3500.94800
2.93812	0.00000	3500.94800
2.94194	0.00000	3492.85700
2.94576	0.00000	3492.85700
2.94959	0.00000	3492.85700
2.95341	0.00000	3492.85700
2.95724	0.00000	3492.85700
2.96107	0.00000	3497.86900
2.96489	0.00000	3497.86900
2.96872	0.00000	3497.86900
2.97254	0.00000	3497.86900
2.97636	0.00000	3496.42800
2.98019	0.00000	3496.42800
2.98401	0.00000	3496.42800
2.98784	0.00000	3496.42800
2.99166	0.00000	3496.42800
2.99549	0.00000	3494.80100
2.99931	0.00000	3494.80100
3.00313	0.00000	3494.80100
3.00695	0.00000	3494.80100
3.01077	0.00000	3496.42800
3.01460	0.00000	3496.42800
3.01843	0.00000	3496.42800
3.02225	0.00000	3496.42800
3.02608	0.00000	3496.42800
3.02990	0.00000	3494.31800
3.03372	0.00000	3494.31800
3.03754	0.00000	3494.31800
3.04136	0.00000	3494.31800
3.04519	0.00000	3495.94400
3.04901	0.00000	3495.94400
3.05283	0.00000	3495.94400
3.05665	0.00000	3495.94400
3.06048	0.00000	3495.94400
3.06430	0.00000	3497.39000
3.06813	0.00000	3497.39000
3.07194	0.00000	3497.39000
3.07576	0.00000	3497.39000
3.07958	0.00000	3499.52200
3.08340	0.00000	3499.52200
3.08722	0.00000	3499.52200
3.09104	0.00000	3499.52200
3.09486	0.00000	3499.52200
3.09868	0.00000	3494.80100
3.10251	0.00000	3494.80100
3.10633	0.00000	3494.80100
3.11016	0.00000	3494.80100
3.11397	0.00000	3500.00000
3.11779	0.00000	3500.00000
3.12161	0.00000	3500.00000
3.12543	0.00000	3500.00000
3.12925	0.00000	3500.00000
3.13307	0.00000	3494.80100
3.13689	0.00000	3494.80100
3.14072	0.00000	3494.80100
3.14454	0.00000	3494.80100
3.14837	0.00000	3495.94400
3.15220	0.00000	3495.94400
3.15601	0.00000	3495.94400
3.15983	0.00000	3495.94400
3.16366	0.00000	3495.94400
3.16748	0.00000	3497.86900
3.17130	0.00000	3497.86900
3.17512	0.00000	3497.86900
3.17895	0.00000	3497.86900
3.18277	0.00000	3503.10100
3.18659	0.00000	3503.10100
3.19042	0.00000	3503.10100
3.19424	0.00000	3503.10100
3.19808	0.00000	3503.10100
3.20190	0.00000	3497.86900
3.20573	0.00000	3497.86900
3.20957	0.00000	3497.86900
3.21339	0.00000	3497.86900
3.21721	0.00000	3496.42800
3.22104	0.00000	3496.42800
3.22486	0.00000	3496.42800
3.22869	0.00000	3496.42800
3.23251	0.00000	3496.42800
3.23633	0.00000	3487.21500
3.24015	0.00000	3487.21500
3.24394	0.00000	3487.21500
3.24777	0.00000	3487.21500
3.25160	0.00000	3500.00000
3.25544	0.00000	3500.00000
3.25927	0.00000	3500.00000
3.26309	0.00000	3500.00000
3.26692	0.00000	3500.00000
3.27074	0.00000	3500.94800
3.27457	0.00000	3500.94800
3.27840	0.00000	3500.94800
3.28222	0.00000	3500.94800
3.28605	0.00000	3500.00000
3.28987	0.00000	3500.00000
3.29370	0.00000	3500.00000
3.29752	0.00000	3500.00000
3.30135	0.00000	3500.00000
3.30517	0.00000	3500.47500
3.30899	0.00000	3500.47500
3.31282	0.00000	3500.47500
3.31664	0.00000	3500.47500
3.32047	0.00000	3500.00000
3.32428	0.00000	3500.00000
3.32810	0.00000	3500.00000
3.33193	0.00000	3500.00000
3.33575	0.00000	3500.00000
3.33957	0.00000	3504.03900
3.34340	0.00000	3504.03900
3.34721	0.00000	3504.03900
3.35104	0.00000	3504.03900
3.35486	0.00000	3496.91000
3.35868	0.00000	3496.91000
3.36251	0.00000	3496.91000
3.36633	0.00000	3496.91000
3.37015	0.00000	3496.91000
3.37398	0.00000	3503.57100
3.37780	0.00000	3503.57100
3.38162	0.00000	3503.57100
3.38545	0.00000	3503.57100
3.38927	0.00000	3503.57100
3.39309	0.00000	3494.31800
3.39691	0.00000	3494.31800
3.40074	0.00000	3494.31800
3.40456	0.00000	3494.31800
3.40839	0.00000	3506.67900
3.41222	0.00000	3506.67900
3.41604	0.00000	3506.67900
3.41986	0.00000	3506.67900
3.42368	0.00000	3506.67900
3.42750	0.00000	3500.94800
3.43133	0.00000	3500.94800
3.43516	0.00000	3500.94800
3.43898	0.00000	3500.94800
3.44280	0.00000	3492.85700
3.44662	0.00000	3492.85700
3.45045	0.00000	3492.85700
3.45428	0.00000	3492.85700
3.45809	0.00000	3492.85700
3.46191	0.00000	3490.27500
3.46574	0.00000	3490.27500
3.46956	0.00000	3490.27500
3.47339	0.00000	3490.27500
3.47721	0.00000	3500.00000
3.48103	0.00000	3500.00000
3.48485	0.00000	3500.00000
3.48869	0.00000	3500.00000
3.49252	0.00000	3500.00000
3.49635	0.00000	3508.52200
3.50017	0.00000	3508.52200
3.50399	0.00000	3508.52200
3.50782	0.00000	3508.52200
3.51164	0.00000	3500.00000
3.51546	0.00000	3500.00000
3.51929	0.00000	3500.00000
3.52312	0.00000	3500.00000
3.52694	0.00000	3500.00000
3.53077	0.00000	3504.97100
3.53459	0.00000	3504.97100
3.53841	0.00000	3504.97100
3.54224	0.00000	3504.97100
3.54606	0.00000	3506.67900
3.54989	0.00000	3506.67900
3.55371	0.00000	3506.67900
3.55754	0.00000	3506.67900
3.56136	0.00000	3506.67900
3.56518	0.00000	3501.42000
3.56900	0.00000	3501.42000
3.57282	0.00000	3501.42000
3.57665	0.00000	3501.42000
3.58047	0.00000	3495.94400
3.58429	0.00000	3495.94400
3.58812	0.00000	3495.94400
3.59193	0.00000	3495.94400
3.59576	0.00000	3495.94400
3.59958	0.00000	3494.80100
3.60340	0.00000	3494.80100
3.60723	0.00000	3494.80100
3.61107	0.00000	3494.80100
3.61489	0.00000	3500.00000
3.61871	0.00000	3500.00000
3.62253	0.00000	3500.00000
3.62636	0.00000	3500.00000
3.63018	0.00000	3500.00000
3.63400	0.00000	3501.42000
3.63782	0.00000	3501.42000
3.64165	0.00000	3501.42000
3.64547	0.00000	3501.42000
3.64929	0.00000	3503.57100
3.65313	0.00000	3503.57100
3.65695	0.00000	3503.57100
3.66078	0.00000	3503.57100
3.66462	0.00000	3503.57100
3.66844	0.00000	3501.42000
3.67227	0.00000	3501.42000
3.67609	0.00000	3501.42000
3.67991	0.00000	3501.42000
3.68374	0.00000	3499.52200
3.68757	0.00000	3499.52200
3.69139	0.00000	3499.52200
3.69523	0.00000	3499.52200
3.69906	0.00000	3499.52200
3.70288	0.00000	3497.86900
3.70671	0.00000	3497.86900
3.71053	0.00000	3497.86900
3.71435	0.00000	3497.86900
3.71817	0.00000	3499.52200
3.72199	0.00000	3499.52200
3.72581	0.00000	3499.52200
3.72966	0.00000	3499.52200
3.73349	0.00000	3499.52200
3.73731	0.00000	3504.97100
3.74113	0.00000	3504.97100
3.74496	0.00000	3504.97100
3.74878	0.00000	3504.97100
3.75260	0.00000	3500.00000
3.75644	0.00000	3500.00000
3.76027	0.00000	3500.00000
3.76408	0.00000	3500.00000
3.76790	0.00000	3500.00000
3.77173	0.00000	3497.86900
3.77556	0.00000	3497.86900
3.77937	0.00000	3497.86900
3.78320	0.00000	3497.86900
3.78703	0.00000	3492.85700
3.79086	0.00000	3492.85700
3.79469	0.00000	3492.85700
3.79851	0.00000	3492.85700
3.80233	0.00000	3492.85700
3.80615	0.00000	3497.39000
3.80998	0.00000	3497.39000
3.81381	0.00000	3497.39000
3.81763	0.00000	3497.39000
3.82145	0.00000	3499.52200
3.82528	0.00000	3499.52200
3.82910	0.00000	3499.52200
3.83292	0.00000	3499.52200
3.83675	0.00000	3499.52200
3.84057	0.00000	3496.91000
3.84439	0.00000	3496.91000
3.84821	0.00000	3496.91000
3.85203	0.00000	3496.91000
3.85586	0.00000	3499.52200
3.85967	0.00000	3499.52200
3.86349	0.00000	3499.52200
3.86731	0.00000	3499.52200
3.87114	0.00000	3499.52200
3.87496	0.00000	3493.34600
3.87878	0.00000	3493.34600
3.88261	0.00000	3493.34600
3.88644	0.00000	3493.34600
3.89027	0.00000	3500.00000
3.89408	0.00000	3500.00000
3.89790	0.00000	3500.00000
3.90173	0.00000	3500.00000
3.90555	0.00000	3500.00000
3.90938	0.00000	3496.42800
3.91320	0.00000	3496.42800
3.91703	0.00000	3496.42800
3.92084	0.00000	3496.42800
3.92466	0.00000	3496.42800
3.92848	0.00000	3504.03900
3.93231	0.00000	3504.03900
3.93613	0.00000	3504.03900
3.93994	0.00000	3504.03900
3.94377	0.00000	3495.94400
3.94758	0.00000	3495.94400
3.95141	0.00000	3495.94400
3.95524	0.00000	3495.94400
3.95907	0.00000	3495.94400
3.96289	0.00000	3497.39000
3.96671	0.00000	3497.39000
3.97053	0.00000	3497.39000
3.97435	0.00000	3497.39000
3.97817	0.00000	3499.52200
3.98200	0.00000	3499.52200
3.98582	0.00000	3499.52200
3.98964	0.00000	3499.52200
3.99346	0.00000	3499.52200
3.99729	0.00000	3497.39000
4.00112	0.00000	3497.39000
4.00494	0.00000	3497.39000
4.00876	0.00000	3497.39000
4.01259	0.00000	3500.00000
4.01641	0.00000	3500.00000
4.02024	0.00000	3500.00000
4.02407	0.00000	3500.00000
4.02788	0.00000	3500.00000
4.03170	0.00000	3501.42000
4.03552	0.00000	3501.42000
4.03935	0.00000	3501.42000
4.04317	0.00000	3501.42000
4.04700	0.00000	3503.10100
4.05082	0.00000	3503.10100
4.05464	0.00000	3503.10100
4.05847	0.00000	3503.10100
4.06230	0.00000	3503.10100
4.06612	0.00000	3491.25700
4.06994	0.00000	3491.25700
4.07376	0.00000	3491.25700
4.07758	0.00000	3491.25700
4.08141	0.00000	3499.52200
4.08523	0.00000	3499.52200
4.08905	0.00000	3499.52200
4.09287	0.00000	3499.52200
4.09670	0.00000	3499.52200
4.10052	0.00000	3497.86900
4.10434	0.00000	3497.86900
4.10816	0.00000	3497.86900
4.11194	0.00000	3497.86900
4.11576	0.00000	3496.42800
4.11959	0.00000	3496.42800
4.12342	0.00000	3496.42800
4.12723	0.00000	3496.42800
4.13106	0.00000	3496.42800
4.13488	0.00000	3494.80100
4.13870	0.00000	3494.80100
4.14252	0.00000	3494.80100
4.14635	0.00000	3494.80100
4.15017	0.00000	3496.42800
4.15400	0.00000	3496.42800
4.15782	0.00000	3496.42800
4.16164	0.00000	3496.42800
4.16546	0.00000	3496.42800
4.16929	0.00000	3501.42000
4.17311	0.00000	3501.42000
4.17694	0.00000	3501.42000
4.18077	0.00000	3501.42000
4.18459	0.00000	3492.85700
4.18842	0.00000	3492.85700
4.19224	0.00000	3492.85700
4.19607	0.00000	3492.85700
4.19990	0.00000	3492.85700
4.20373	0.00000	3494.31800
4.20755	0.00000	3494.31800
4.21138	0.00000	3494.31800
4.21521	0.00000	3494.31800
4.21903	0.00000	3492.85700
4.22286	0.00000	3492.85700
4.22668	0.00000	3492.85700
4.23051	0.00000	3492.85700
4.23432	0.00000	3492.85700
4.23815	0.00000	3494.31800
4.24197	0.00000	3494.31800
4.24579	0.00000	3494.31800
4.24961	0.00000	3494.31800
4.25344	0.00000	3496.42800
4.25725	0.00000	3496.42800
4.26107	0.00000	3496.42800
4.26490	0.00000	3496.42800
4.26872	0.00000	3496.42800
4.27256	0.00000	3494.31800
4.27639	0.00000	3494.31800
4.28021	0.00000	3494.31800
4.28403	0.00000	3494.31800
4.28785	0.00000	3489.28500
4.29168	0.00000	3489.28500
4.29550	0.00000	3489.28500
4.29933	0.00000	3489.28500
4.30316	0.00000	3489.28500
4.30698	0.00000	3497.39000
4.31081	0.00000	3497.39000
4.31462	0.00000	3497.39000
4.31845	0.00000	3497.39000
4.32227	0.00000	3499.52200
4.32610	0.00000	3499.52200
4.32992	0.00000	3499.52200
4.33375	0.00000	3499.52200
4.33757	0.00000	3499.52200
4.34140	0.00000	3486.71700
4.34523	0.00000	3486.71700
4.34906	0.00000	3486.71700
4.35289	0.00000	3486.71700
4.35671	0.00000	3496.42800
4.36054	0.00000	3496.42800
4.36436	0.00000	3496.42800
4.36818	0.00000	3496.42800
4.37200	0.00000	3496.42800
4.37583	0.00000	3496.91000
4.37965	0.00000	3496.91000
4.38347	0.00000	3496.91000
4.38729	0.00000	3496.91000
4.39111	0.00000	3492.85700
4.39494	0.00000	3492.85700
4.39877	0.00000	3492.85700
4.40259	0.00000	3492.85700
4.40641	0.00000	3492.85700
4.41024	0.00000	3500.00000
4.41406	0.00000	3500.00000
4.41788	0.00000	3500.00000
4.42171	0.00000	3500.00000
4.42553	0.00000	3499.52200
4.42935	0.00000	3499.52200
4.43318	0.00000	3499.52200
4.43700	0.00000	3499.52200
4.44083	0.00000	3499.52200
4.44465	0.00000	3489.28500
4.44848	0.00000	3489.28500
4.45231	0.00000	3489.28500
4.45613	0.00000	3489.28500
4.45994	0.00000	3489.28500
4.46376	0.00000	3489.28500
4.46759	0.00000	3489.28500
4.47140	0.00000	3489.28500
4.47547	0.00000	3489.28500
4.47938	0.00000	3495.94400
4.48325	0.00000	3495.94400
4.48711	0.00000	3495.94400
4.49095	0.00000	3495.94400
4.49477	0.00000	3495.94400
4.49861	0.00000	3495.94400
4.50248	0.00000	3495.94400
4.50632	0.00000	3495.94400
4.51015	0.00000	3495.94400
4.51398	0.00000	3497.39000
4.51781	0.00000	3497.39000
4.52164	0.00000	3497.39000
4.52545	0.00000	3497.39000
4.52928	0.00000	3496.42800
4.53311	0.00000	3496.42800
4.53692	0.00000	3496.42800
4.54075	0.00000	3496.42800
4.54459	0.00000	3496.42800
4.54842	0.00000	3493.34600
4.55224	0.00000	3493.34600
4.55607	0.00000	3493.34600
4.55989	0.00000	3493.34600
4.56372	0.00000	3492.85700
4.56754	0.00000	3492.85700
4.57136	0.00000	3492.85700
4.57520	0.00000	3492.85700
4.57902	0.00000	3492.85700
4.58285	0.00000	3504.03900
4.58667	0.00000	3504.03900
4.59050	0.00000	3504.03900
4.59432	0.00000	3504.03900
4.59814	0.00000	3496.42800
4.60197	0.00000	3496.42800
4.60580	0.00000	3496.42800
4.60962	0.00000	3496.42800
4.61344	0.00000	3496.42800
4.61726	0.00000	3496.91000
4.62109	0.00000	3496.91000
4.62490	0.00000	3496.91000
4.62873	0.00000	3496.91000
4.63256	0.00000	3503.10100
4.63638	0.00000	3503.10100
4.64020	0.00000	3503.10100
4.64403	0.00000	3503.10100
4.64785	0.00000	3503.10100
4.65168	0.00000	3500.00000
4.65550	0.00000	3500.00000
4.65933	0.00000	3500.00000
4.66314	0.00000	3500.00000
4.66697	0.00000	3500.00000
4.67079	0.00000	3500.47500
4.67462	0.00000	3500.47500
4.67844	0.00000	3500.47500
4.68227	0.00000	3500.47500
4.68610	0.00000	3500.00000
4.68992	0.00000	3500.00000
4.69375	0.00000	3500.00000
4.69758	0.00000	3500.00000
4.70140	0.00000	3500.00000
4.70523	0.00000	3500.94800
4.70905	0.00000	3500.94800
4.71288	0.00000	3500.94800
4.71670	0.00000	3500.94800
4.72052	0.00000	3492.85700
4.72436	0.00000	3492.85700
4.72818	0.00000	3492.85700
4.73200	0.00000	3492.85700
4.73582	0.00000	3492.85700
4.73964	0.00000	3493.83300
4.74346	0.00000	3493.83300
4.74729	0.00000	3493.83300
4.75111	0.00000	3493.83300
4.75493	0.00000	3500.00000
4.75876	0.00000	3500.00000
4.76258	0.00000	3500.00000
4.76642	0.00000	3500.00000
4.77025	0.00000	3500.00000
4.77407	0.00000	3497.86900
4.77790	0.00000	3497.86900
4.78172	0.00000	3497.86900
4.78555	0.00000	3497.86900
4.78937	0.00000	3496.42800
4.79321	0.00000	3496.42800
4.79703	0.00000	3496.42800
4.80085	0.00000	3496.42800
4.80468	0.00000	3496.42800
4.80850	0.00000	3494.80100
4.81233	0.00000	3494.80100
4.81615	0.00000	3494.80100
4.81994	0.00000	3494.80100
4.82377	0.00000	3499.52200
4.82759	0.00000	3499.52200
4.83141	0.00000	3499.52200
4.83523	0.00000	3499.52200
4.83906	0.00000	3499.52200
4.84288	0.00000	3501.42000
4.84670	0.00000	3501.42000
4.85053	0.00000	3501.42000
4.85436	0.00000	3501.42000
4.85819	0.00000	3500.00000
4.86201	0.00000	3500.00000
4.86583	0.00000	3500.00000
4.86966	0.00000	3500.00000
4.87349	0.00000	3500.00000
4.87731	0.00000	3487.71200
4.88113	0.00000	3487.71200
4.88496	0.00000	3487.71200
4.88879	0.00000	3487.71200
4.89261	0.00000	3500.00000
4.89644	0.00000	3500.00000
4.90026	0.00000	3500.00000
4.90409	0.00000	3500.00000
4.90792	0.00000	3500.00000
4.91175	0.00000	3497.86900
4.91557	0.00000	3497.86900
4.91939	0.00000	3497.86900
4.92321	0.00000	3497.86900
4.92703	0.00000	3496.42800
4.93086	0.00000	3496.42800
4.93469	0.00000	3496.42800
4.93851	0.00000	3496.42800
4.94233	0.00000	3496.42800
4.94616	0.00000	3494.80100
4.94999	0.00000	3494.80100
4.95381	0.00000	3494.80100
4.95763	0.00000	3494.80100
4.96146	0.00000	3500.00000
4.96528	0.00000	3500.00000
4.96911	0.00000	3500.00000
4.97293	0.00000	3500.00000
4.97676	0.00000	3500.00000
4.98062	0.00000	3498.34600
4.98446	0.00000	3498.34600
4.98830	0.00000	3498.34600
4.99213	0.00000	3498.34600
4.99594	0.00000	3503.57100
4.99977	0.00000	3503.57100
5.00410	0.00000	3503.57100
5.00795	0.00000	3503.57100
5.01179	0.00000	3503.57100
5.01562	0.00000	3498.34600
5.01949	0.00000	3498.34600
5.02332	0.00000	3498.34600
5.02716	0.00000	3498.34600
5.03100	0.00000	3548.34900
5.03488	0.00000	3548.34900
5.03874	0.00000	3548.34900
5.04258	0.00000	3548.34900
5.04642	0.00000	3548.34900
5.05024	0.00000	3827.00800
5.05407	0.00000	3827.00800
5.05791	0.00000	3827.00800
5.06174	0.00000	3827.00800
5.06558	0.00000	3827.00800
5.06942	0.00000	4063.03200
5.07324	0.00000	4063.03200
5.07707	0.00000	4063.03200
5.08091	0.00000	4063.03200
5.08475	0.00000	4063.03200
5.08858	0.00000	4245.68900
5.09241	0.00000	4245.68900
5.09623	0.00000	4245.68900
5.10006	0.00000	4245.68900
5.10389	0.00000	4245.68900
5.10774	0.00000	4245.68900
5.11157	0.00000	4387.91700
5.11541	0.00000	4387.91700
5.11924	0.00000	4387.91700
5.12307	0.00000	4387.91700
5.12690	0.00000	4387.91700
5.13073	0.00000	4497.07000
5.13457	0.00000	4497.07000
5.13841	0.00000	4497.07000
5.14225	0.00000	4497.07000
5.14609	0.00000	4497.07000
5.14992	0.00000	4497.07000
5.15375	0.00000	4567.08700
5.15757	0.00000	4567.08700
5.16141	0.00000	4567.08700
5.16523	0.00000	4567.08700
5.16907	0.00000	4567.08700
5.17291	0.00000	4617.79200
5.17674	0.00000	4617.79200
5.18058	0.00000	4617.79200
5.18441	0.00000	4617.79200
5.18824	0.00000	4617.79200
5.19207	0.00000	4617.79200
5.19590	0.00000	4670.70900
5.19975	0.00000	4670.70900
5.20359	0.00000	4670.70900
5.20742	0.00000	4670.70900
5.21125	0.00000	4670.70900
5.21509	0.00000	4670.70900
5.21891	0.00000	4706.97300
5.22274	0.00000	4706.97300
5.22657	0.00000	4706.97300
5.23040	0.00000	4706.97300
5.23424	0.00000	4706.97300
5.23807	0.00000	4729.10500
5.24191	0.00000	4729.10500
5.24576	0.00000	4729.10500
5.24960	0.00000	4729.10500
5.25344	0.00000	4729.10500
5.25728	0.00000	4729.10500
5.26112	0.00000	4758.98100
5.26494	0.00000	4758.98100
5.26878	0.00000	4758.98100
5.27262	0.00000	4758.98100
5.27647	0.00000	4758.98100
5.28031	0.00000	4758.98100
5.28414	0.00000	4769.49700
5.28794	0.00000	4769.49700
5.29178	0.00000	4769.49700
5.29561	0.00000	4769.49700
5.29944	0.00000	4769.49700
5.30327	0.00000	4769.49700
5.30712	0.00000	4781.65900
5.31096	0.00000	4781.65900
5.31480	0.00000	4781.65900
5.31864	0.00000	4781.65900
5.32248	0.00000	4781.65900
5.32632	0.00000	4781.65900
5.33015	0.00000	4788.04300
5.33398	0.00000	4788.04300
5.33782	0.00000	4788.04300
5.34165	0.00000	4788.04300
5.34549	0.00000	4788.04300
5.34932	0.00000	4788.04300
5.35316	0.00000	4813.67600
5.35701	0.00000	4813.67600
5.36084	0.00000	4813.67600
5.36468	0.00000	4813.67600
5.36851	0.00000	4813.67600
5.37236	0.00000	4812.86300
5.37618	0.00000	4812.86300
5.38002	0.00000	4812.86300
5.38385	0.00000	4812.86300
5.38767	0.00000	4812.86300
5.39150	0.00000	4812.86300
5.39533	0.00000	4817.93500
5.39917	0.00000	4817.93500
5.40300	0.00000	4817.93500
5.40684	0.00000	4817.93500
5.41068	0.00000	4817.93500
5.41451	0.00000	4817.93500
5.41835	0.00000	4838.79700
5.42219	0.00000	4838.79700
5.42602	0.00000	4838.79700
5.42986	0.00000	4838.79700
5.43369	0.00000	4838.79700
5.43752	0.00000	4838.79700
5.44136	0.00000	4829.54500
5.44519	0.00000	4829.54500
5.44902	0.00000	4829.54500
5.45285	0.00000	4829.54500
5.45669	0.00000	4829.54500
5.46052	0.00000	4829.54500
5.46435	0.00000	4830.28000
5.46818	0.00000	4830.28000
5.47201	0.00000	4830.28000
5.47584	0.00000	4830.28000
5.47967	0.00000	4830.28000
5.48351	0.00000	4830.28000
5.48735	0.00000	4838.79700
5.49118	0.00000	4838.79700
5.49501	0.00000	4838.79700
5.49885	0.00000	4838.79700
5.50268	0.00000	4838.79700
5.50651	0.00000	4838.79700
5.51035	0.00000	4831.83400
5.51418	0.00000	4831.83400
5.51801	0.00000	4831.83400
5.52185	0.00000	4831.83400
5.52569	0.00000	4831.83400
5.52951	0.00000	4831.83400
5.53335	0.00000	4838.36200
5.53717	0.00000	4838.36200
5.54101	0.00000	4838.36200
5.54484	0.00000	4838.36200
5.54868	0.00000	4838.36200
5.55252	0.00000	4838.36200
5.55636	0.00000	4840.61600
5.56019	0.00000	4840.61600
5.56403	0.00000	4840.61600
5.56787	0.00000	4840.61600
5.57171	0.00000	4840.61600
5.57555	0.00000	4840.61600
5.57938	0.00000	4847.56100
5.58323	0.00000	4847.56100
5.58707	0.00000	4847.56100
5.59091	0.00000	4847.56100
5.59474	0.00000	4847.56100
5.59859	0.00000	4847.56100
5.60242	0.00000	4842.18000
5.60625	0.00000	4842.18000
5.61009	0.00000	4842.18000
5.61391	0.00000	4842.18000
5.61775	0.00000	4842.18000
5.62159	0.00000	4843.52400
5.62541	0.00000	4843.52400
5.62924	0.00000	4843.52400
5.63307	0.00000	4843.52400
5.63691	0.00000	4843.52400
5.64074	0.00000	4843.52400
5.64457	0.00000	4847.36300
5.64841	0.00000	4847.36300
5.65226	0.00000	4847.36300
5.65609	0.00000	4847.36300
5.65994	0.00000	4847.36300
5.66378	0.00000	4847.36300
5.66762	0.00000	4847.56100
5.67146	0.00000	4847.56100
5.67530	0.00000	4847.56100
5.67914	0.00000	4847.56100
5.68297	0.00000	4847.56100
5.68681	0.00000	4847.56100
5.69066	0.00000	4842.18000
5.69449	0.00000	4842.18000
5.69834	0.00000	4842.18000
5.70218	0.00000	4842.18000
5.70602	0.00000	4842.18000
5.70986	0.00000	4842.18000
5.71369	0.00000	4839.49000
5.71753	0.00000	4839.49000
5.72136	0.00000	4839.49000
5.72519	0.00000	4839.49000
5.72902	0.00000	4839.49000
5.73285	0.00000	4839.49000
5.73668	0.00000	4838.36200
5.74052	0.00000	4838.36200
5.74436	0.00000	4838.36200
5.74820	0.00000	4838.36200
5.75204	0.00000	4838.36200
5.75588	0.00000	4838.36200
5.75971	0.00000	4848.67500
5.76355	0.00000	4848.67500
5.76738	0.00000	4848.67500
5.77122	0.00000	4848.67500
5.77506	0.00000	4848.67500
5.77889	0.00000	4848.67500
5.78273	0.00000	4850.25100
5.78656	0.00000	4850.25100
5.79040	0.00000	4850.25100
5.79423	0.00000	4850.25100
5.79807	0.00000	4850.25100
5.80191	0.00000	4850.25100
5.80576	0.00000	4842.18000
5.80959	0.00000	4842.18000
5.81343	0.00000	4842.18000
5.81726	0.00000	4842.18000
5.82111	0.00000	4842.18000
5.82494	0.00000	4842.18000
5.82877	0.00000	4834.11000
5.83261	0.00000	4834.11000
5.83644	0.00000	4834.11000
5.84028	0.00000	4834.11000
5.84411	0.00000	4834.11000
5.84794	0.00000	4834.11000
5.85178	0.00000	4844.87100
5.85561	0.00000	4844.87100
5.85945	0.00000	4844.87100
5.86329	0.00000	4844.87100
5.86712	0.00000	4844.87100
5.87096	0.00000	4844.87100
5.87480	0.00000	4835.66800
5.87863	0.00000	4835.66800
5.88247	0.00000	4835.66800
5.88631	0.00000	4835.66800
5.89014	0.00000	4835.66800
5.89398	0.00000	4831.10500
5.89780	0.00000	4831.10500
5.90163	0.00000	4831.10500
5.90547	0.00000	4831.10500
5.90929	0.00000	4831.10500
5.91312	0.00000	4831.10500
5.91696	0.00000	4843.52400
5.92079	0.00000	4843.52400
5.92463	0.00000	4843.52400
5.92847	0.00000	4843.52400
5.93230	0.00000	4843.52400
5.93614	0.00000	4843.52400
5.93994	0.00000	4835.66800
5.94377	0.00000	4835.66800
5.94762	0.00000	4835.66800
5.95145	0.00000	4835.66800
5.95528	0.00000	4835.66800
5.95912	0.00000	4835.66800
5.96295	0.00000	4845.98900
5.96678	0.00000	4845.98900
5.97063	0.00000	4845.98900
5.97447	0.00000	4845.98900
5.97830	0.00000	4845.98900
5.98214	0.00000	4845.98900
5.98596	0.00000	4841.05600
5.98979	0.00000	4841.05600
5.99362	0.00000	4841.05600
5.99745	0.00000	4841.05600
6.00128	0.00000	4841.05600
6.00511	0.00000	4841.05600
6.00895	0.00000	4843.75000
6.01279	0.00000	4843.75000
6.01662	0.00000	4843.75000
6.02046	0.00000	4843.75000
6.02430	0.00000	4843.75000
6.02814	0.00000	4843.75000
6.03194	0.00000	4834.11000
6.03578	0.00000	4834.11000
6.03960	0.00000	4834.11000
6.04345	0.00000	4834.11000
6.04729	0.00000	4834.11000
6.05113	0.00000	4834.11000
6.05496	0.00000	4837.23000
6.05881	0.00000	4837.23000
6.06264	0.00000	4837.23000
6.06648	0.00000	4837.23000
6.07032	0.00000	4837.23000
6.07416	0.00000	4837.23000
6.07799	0.00000	4842.62600
6.08182	0.00000	4842.62600
6.08565	0.00000	4842.62600
6.08947	0.00000	4842.62600
6.09332	0.00000	4842.62600
6.09715	0.00000	4842.62600
6.10097	0.00000	4830.28000
6.10481	0.00000	4830.28000
6.10865	0.00000	4830.28000
6.11249	0.00000	4830.28000
6.11633	0.00000	4830.28000
6.12017	0.00000	4830.28000
6.12401	0.00000	4847.56100
6.12784	0.00000	4847.56100
6.13168	0.00000	4847.56100
6.13551	0.00000	4847.56100
6.13935	0.00000	4847.56100
6.14318	0.00000	4847.56100
6.14702	0.00000	4838.36200
6.15086	0.00000	4838.36200
6.15470	0.00000	4838.36200
6.15853	0.00000	4838.36200
6.16235	0.00000	4838.36200
6.16619	0.00000	4838.36200
6.17002	0.00000	4829.54500
6.17385	0.00000	4829.54500
6.17768	0.00000	4829.54500
6.18151	0.00000	4829.54500
6.18534	0.00000	4829.54500
6.18918	0.00000	4841.94400
6.19302	0.00000	4841.94400
6.19686	0.00000	4841.94400
6.20069	0.00000	4841.94400
6.20453	0.00000	4841.94400
6.20837	0.00000	4841.94400
6.21221	0.00000	4844.20000
6.21606	0.00000	4844.20000
6.21989	0.00000	4844.20000
6.22373	0.00000	4844.20000
6.22757	0.00000	4844.20000
6.23141	0.00000	4844.20000
6.23524	0.00000	4830.28000
6.23908	0.00000	4830.28000
6.24290	0.00000	4830.28000
6.24674	0.00000	4830.28000
6.25057	0.00000	4830.28000
6.25441	0.00000	4830.28000
6.25824	0.00000	4847.56100
6.26207	0.00000	4847.56100
6.26590	0.00000	4847.56100
6.26974	0.00000	4847.56100
6.27358	0.00000	4847.56100
6.27744	0.00000	4847.56100
6.28129	0.00000	4843.75000
6.28515	0.00000	4843.75000
6.28898	0.00000	4843.75000
6.29283	0.00000	4843.75000
6.29667	0.00000	4843.75000
6.30051	0.00000	4843.75000
6.30434	0.00000	4834.11000
6.30817	0.00000	4834.11000
6.31201	0.00000	4834.11000
6.31585	0.00000	4834.11000
6.31968	0.00000	4834.11000
6.32352	0.00000	4834.11000
6.32737	0.00000	4839.92800
6.33121	0.00000	4839.92800
6.33505	0.00000	4839.92800
6.33891	0.00000	4839.92800
6.34276	0.00000	4839.92800
6.34660	0.00000	4839.92800
6.35044	0.00000	4839.92800
6.35427	0.00000	4839.92800
6.35810	0.00000	4839.92800
6.36193	0.00000	4839.92800
6.36577	0.00000	4839.92800
6.36960	0.00000	4839.92800
6.37344	0.00000	4839.49000
6.37729	0.00000	4839.49000
6.38113	0.00000	4839.49000
6.38496	0.00000	4839.49000
6.38880	0.00000	4839.49000
6.39264	0.00000	4839.49000
6.39647	0.00000	4831.42000
6.40031	0.00000	4831.42000
6.40414	0.00000	4831.42000
6.40794	0.00000	4831.42000
6.41177	0.00000	4831.42000
6.41561	0.00000	4831.42000
6.41944	0.00000	4834.95600
6.42327	0.00000	4834.95600
6.42710	0.00000	4834.95600
6.43093	0.00000	4834.95600
6.43476	0.00000	4834.95600
6.43859	0.00000	4839.23400
6.44243	0.00000	4839.23400
6.44626	0.00000	4839.23400
6.45010	0.00000	4839.23400
6.45393	0.00000	4839.23400
6.45779	0.00000	4839.23400
6.46163	0.00000	4843.07300
6.46547	0.00000	4843.07300
6.46931	0.00000	4843.07300
6.47315	0.00000	4843.07300
6.47699	0.00000	4843.07300
6.48082	0.00000	4843.07300
6.48465	0.00000	4842.62600
6.48849	0.00000	4842.62600
6.49233	0.00000	4842.62600
6.49618	0.00000	4842.62600
6.50000	0.00000	4842.62600
6.50383	0.00000	4842.62600
6.50766	0.00000	4830.69100
6.51149	0.00000	4830.69100
6.51533	0.00000	4830.69100
6.51917	0.00000	4830.69100
6.52300	0.00000	4830.69100
6.52683	0.00000	4830.69100
6.53068	0.00000	4841.05600
6.53453	0.00000	4841.05600
6.53837	0.00000	4841.05600
6.54221	0.00000	4841.05600
6.54605	0.00000	4841.05600
6.54989	0.00000	4841.05600
6.55373	0.00000	4839.49000
6.55757	0.00000	4839.49000
6.56141	0.00000	4839.49000
6.56526	0.00000	4839.49000
6.56909	0.00000	4839.49000
6.57293	0.00000	4839.49000
6.57677	0.00000	4837.23000
6.58060	0.00000	4837.23000
6.58443	0.00000	4837.23000
6.58826	0.00000	4837.23000
6.59208	0.00000	4837.23000
6.59592	0.00000	4837.23000
6.59976	0.00000	4839.92800
6.60360	0.00000	4839.92800
6.60743	0.00000	4839.92800
6.61127	0.00000	4839.92800
6.61510	0.00000	4839.92800
6.61893	0.00000	4839.92800
6.62277	0.00000	4843.75000
6.62661	0.00000	4843.75000
6.63045	0.00000	4843.75000
6.63427	0.00000	4843.75000
6.63813	0.00000	4843.75000
6.64197	0.00000	4843.75000
6.64580	0.00000	4836.80100
6.64964	0.00000	4836.80100
6.65349	0.00000	4836.80100
6.65732	0.00000	4836.80100
6.66116	0.00000	4836.80100
6.66499	0.00000	4836.80100
6.66882	0.00000	4836.09500
6.67265	0.00000	4836.09500
6.67648	0.00000	4836.09500
6.68031	0.00000	4836.09500
6.68414	0.00000	4836.09500
6.68794	0.00000	4832.67000
6.69177	0.00000	4832.67000
6.69560	0.00000	4832.67000
6.69943	0.00000	4832.67000
6.70327	0.00000	4832.67000
6.70710	0.00000	4832.67000
6.71093	0.00000	4840.36800
6.71478	0.00000	4840.36800
6.71860	0.00000	4840.36800
6.72244	0.00000	4840.36800
6.72629	0.00000	4840.36800
6.73012	0.00000	4840.36800
6.73396	0.00000	4835.66800
6.73779	0.00000	4835.66800
6.74162	0.00000	4835.66800
6.74545	0.00000	4835.66800
6.74929	0.00000	4835.66800
6.75313	0.00000	4835.66800
6.75696	0.00000	4831.83400
6.76079	0.00000	4831.83400
6.76462	0.00000	4831.83400
6.76845	0.00000	4831.83400
6.77228	0.00000	4831.83400
6.77611	0.00000	4831.83400
6.77994	0.00000	4827.58600
6.78377	0.00000	4827.58600
6.78760	0.00000	4827.58600
6.79143	0.00000	4827.58600
6.79526	0.00000	4827.58600
6.79910	0.00000	4827.58600
6.80295	0.00000	4830.69100
6.80678	0.00000	4830.69100
6.81061	0.00000	4830.69100
6.81444	0.00000	4830.69100
6.81827	0.00000	4830.69100
6.82210	0.00000	4830.69100
6.82593	0.00000	4834.53200
6.82977	0.00000	4834.53200
6.83360	0.00000	4834.53200
6.83743	0.00000	4834.53200
6.84126	0.00000	4834.53200
6.84509	0.00000	4834.53200
6.84893	0.00000	4832.97400
6.85278	0.00000	4832.97400
6.85661	0.00000	4832.97400
6.86045	0.00000	4832.97400
6.86428	0.00000	4832.97400
6.86811	0.00000	4832.97400
6.87194	0.00000	4830.28000
6.87579	0.00000	4830.28000
6.87962	0.00000	4830.28000
6.88345	0.00000	4830.28000
6.88728	0.00000	4830.28000
6.89111	0.00000	4830.28000
6.89494	0.00000	4837.23000
6.89877	0.00000	4837.23000
6.90260	0.00000	4837.23000
6.90643	0.00000	4837.23000
6.91027	0.00000	4837.23000
6.91410	0.00000	4837.23000
6.91794	0.00000	4824.89200
6.92178	0.00000	4824.89200
6.92561	0.00000	4824.89200
6.92944	0.00000	4824.89200
6.93327	0.00000	4824.89200
6.93710	0.00000	4832.67000
6.94093	0.00000	4832.67000
6.94476	0.00000	4832.67000
6.94859	0.00000	4832.67000
6.95242	0.00000	4832.67000
6.95625	0.00000	4832.67000
6.96008	0.00000	4835.38400
6.96391	0.00000	4835.38400
6.96774	0.00000	4835.38400
6.97157	0.00000	4835.38400
6.97541	0.00000	4835.38400
6.97924	0.00000	4835.38400
6.98307	0.00000	4827.99000
6.98692	0.00000	4827.99000
6.99075	0.00000	4827.99000
6.99458	0.00000	4827.99000
6.99841	0.00000	4827.99000
7.00224	0.00000	4827.99000
7.00608	0.00000	4829.13600
7.00991	0.00000	4829.13600
7.01374	0.00000	4829.13600
7.01757	0.00000	4829.13600
7.02140	0.00000	4829.13600
7.02524	0.00000	4829.13600
7.02907	0.00000	4825.28800
7.03290	0.00000	4825.28800
7.03673	0.00000	4825.28800
7.04057	0.00000	4825.28800
7.04440	0.00000	4825.28800
7.04823	0.00000	4825.28800
7.05206	0.00000	4829.13600
7.05590	0.00000	4829.13600
7.05974	0.00000	4829.13600
7.06357	0.00000	4829.13600
7.06741	0.00000	4829.13600
7.07124	0.00000	4829.13600
7.07507	0.00000	4824.89200
7.07891	0.00000	4824.89200
7.08275	0.00000	4824.89200
7.08658	0.00000	4824.89200
7.09042	0.00000	4824.89200
7.09424	0.00000	4824.89200
7.09808	0.00000	4829.13600
7.10191	0.00000	4829.13600
7.10574	0.00000	4829.13600
7.10957	0.00000	4829.13600
7.11341	0.00000	4829.13600
7.11724	0.00000	4829.13600
7.12107	0.00000	4831.83400
7.12491	0.00000	4831.83400
7.12876	0.00000	4831.83400
7.13260	0.00000	4831.83400
7.13643	0.00000	4831.83400
7.14026	0.00000	4831.83400
7.14409	0.00000	4835.66800
7.14793	0.00000	4835.66800
7.15178	0.00000	4835.66800
7.15560	0.00000	4835.66800
7.15944	0.00000	4835.66800
7.16327	0.00000	4835.66800
7.16710	0.00000	4826.84000
7.17095	0.00000	4826.84000
7.17478	0.00000	4826.84000
7.17862	0.00000	4826.84000
7.18245	0.00000	4826.84000
7.18628	0.00000	4832.67000
7.19011	0.00000	4832.67000
7.19394	0.00000	4832.67000
7.19778	0.00000	4832.67000
7.20161	0.00000	4832.67000
7.20545	0.00000	4832.67000
7.20928	0.00000	4833.81500
7.21311	0.00000	4833.81500
7.21694	0.00000	4833.81500
7.22077	0.00000	4833.81500
7.22461	0.00000	4833.81500
7.22844	0.00000	4833.81500
7.23228	0.00000	4822.58600
7.23613	0.00000	4822.58600
7.23994	0.00000	4822.58600
7.24378	0.00000	4822.58600
7.24761	0.00000	4822.58600
7.25144	0.00000	4822.58600
7.25528	0.00000	4831.83400
7.25911	0.00000	4831.83400
7.26294	0.00000	4831.83400
7.26677	0.00000	4831.83400
7.27061	0.00000	4831.83400
7.27444	0.00000	4831.83400
7.27827	0.00000	4833.39300
7.28210	0.00000	4833.39300
7.28593	0.00000	4833.39300
7.28977	0.00000	4833.39300
7.29361	0.00000	4833.39300
7.29744	0.00000	4833.39300
7.30127	0.00000	4831.83400
7.30510	0.00000	4831.83400
7.30893	0.00000	4831.83400
7.31277	0.00000	4831.83400
7.31660	0.00000	4831.83400
7.32043	0.00000	4831.83400
7.32426	0.00000	4838.36200
7.32809	0.00000	4838.36200
7.33192	0.00000	4838.36200
7.33577	0.00000	4838.36200
7.33960	0.00000	4838.36200
7.34344	0.00000	4838.36200
7.34728	0.00000	4837.23000
7.35111	0.00000	4837.23000
7.35494	0.00000	4837.23000
7.35877	0.00000	4837.23000
7.36260	0.00000	4837.23000
7.36643	0.00000	4837.23000
7.37027	0.00000	4827.99000
7.37410	0.00000	4827.99000
7.37793	0.00000	4827.99000
7.38176	0.00000	4827.99000
7.38560	0.00000	4827.99000
7.38944	0.00000	4827.99000
7.39327	0.00000	4838.79700
7.39710	0.00000	4838.79700
7.40094	0.00000	4838.79700
7.40476	0.00000	4838.79700
7.40860	0.00000	4838.79700
7.41243	0.00000	4838.79700
7.41626	0.00000	4836.09500
7.42010	0.00000	4836.09500
7.42393	0.00000	4836.09500
7.42779	0.00000	4836.09500
7.43162	0.00000	4836.09500
7.43545	0.00000	4831.52100
7.43930	0.00000	4831.52100
7.44315	0.00000	4831.52100
7.44698	0.00000	4831.52100
7.45082	0.00000	4831.52100
7.45464	0.00000	4831.52100
7.45848	0.00000	4839.23400
7.46231	0.00000	4839.23400
7.46614	0.00000	4839.23400
7.46997	0.00000	4839.23400
7.47381	0.00000	4839.23400
7.47764	0.00000	4839.23400
7.48147	0.00000	4827.58600
7.48531	0.00000	4827.58600
7.48914	0.00000	4827.58600
7.49297	0.00000	4827.58600
7.49680	0.00000	4827.58600
7.50064	0.00000	4827.58600
7.50446	0.00000	4829.13600
7.50830	0.00000	4829.13600
7.51213	0.00000	4829.13600
7.51594	0.00000	4829.13600
7.51978	0.00000	4829.13600
7.52362	0.00000	4829.13600
7.52745	0.00000	4823.74100
7.53128	0.00000	4823.74100
7.53511	0.00000	4823.74100
7.53895	0.00000	4823.74100
7.54278	0.00000	4823.74100
7.54661	0.00000	4823.74100
7.55045	0.00000	4834.53200
7.55428	0.00000	4834.53200
7.55811	0.00000	4834.53200
7.56194	0.00000	4834.53200
7.56577	0.00000	4834.53200
7.56961	0.00000	4834.53200
7.57344	0.00000	4821.04300
7.57727	0.00000	4821.04300
7.58110	0.00000	4821.04300
7.58494	0.00000	4821.04300
7.58877	0.00000	4821.04300
7.59260	0.00000	4821.04300
7.59643	0.00000	4824.89200
7.60027	0.00000	4824.89200
7.60410	0.00000	4824.89200
7.60793	0.00000	4824.89200
7.61176	0.00000	4824.89200
7.61559	0.00000	4824.89200
7.61943	0.00000	4830.69100
7.62326	0.00000	4830.69100
7.62709	0.00000	4830.69100
7.63092	0.00000	4830.69100
7.63476	0.00000	4830.69100
7.63859	0.00000	4830.69100
7.64242	0.00000	4832.25100
7.64626	0.00000	4832.25100
7.65009	0.00000	4832.25100
7.65392	0.00000	4832.25100
7.65775	0.00000	4832.25100
7.66159	0.00000	4832.25100
7.66541	0.00000	4836.52400
7.66924	0.00000	4836.52400
7.67307	0.00000	4836.52400
7.67690	0.00000	4836.52400
7.68073	0.00000	4836.52400
7.68457	0.00000	4829.95600
7.68842	0.00000	4829.95600
7.69225	0.00000	4829.95600
7.69609	0.00000	4829.95600
7.69992	0.00000	4829.95600
7.70377	0.00000	4829.95600
7.70760	0.00000	4829.54500
7.71143	0.00000	4829.54500
7.71526	0.00000	4829.54500
7.71910	0.00000	4829.54500
7.72293	0.00000	4829.54500
7.72677	0.00000	4829.54500
7.73062	0.00000	4826.43900
7.73445	0.00000	4826.43900
7.73828	0.00000	4826.43900
7.74211	0.00000	4826.43900
7.74595	0.00000	4826.43900
7.74978	0.00000	4826.43900
7.75361	0.00000	4837.23000
7.75745	0.00000	4837.23000
7.76128	0.00000	4837.23000
7.76511	0.00000	4837.23000
7.76894	0.00000	4837.23000
7.77278	0.00000	4837.23000
7.77661	0.00000	4818.34500
7.78044	0.00000	4818.34500
7.78427	0.00000	4818.34500
7.78810	0.00000	4818.34500
7.79194	0.00000	4818.34500
7.79577	0.00000	4818.34500
7.79960	0.00000	4830.69100
7.80343	0.00000	4830.69100
7.80726	0.00000	4830.69100
7.81110	0.00000	4830.69100
7.81493	0.00000	4830.69100
7.81877	0.00000	4830.69100
7.82260	0.00000	4827.58600
7.82643	0.00000	4827.58600
7.83027	0.00000	4827.58600
7.83410	0.00000	4827.58600
7.83793	0.00000	4827.58600
7.84178	0.00000	4827.58600
7.84561	0.00000	4831.83400
7.84945	0.00000	4831.83400
7.85329	0.00000	4831.83400
7.85712	0.00000	4831.83400
7.86097	0.00000	4831.83400
7.86481	0.00000	4831.83400
7.86865	0.00000	4832.25100
7.87248	0.00000	4832.25100
7.87632	0.00000	4832.25100
7.88015	0.00000	4832.25100
7.88399	0.00000	4832.25100
7.88782	0.00000	4832.25100
7.89165	0.00000	4826.84000
7.89549	0.00000	4826.84000
7.89932	0.00000	4826.84000
7.90317	0.00000	4826.84000
7.90700	0.00000	4826.84000
7.91085	0.00000	4828.39600
7.91467	0.00000	4828.39600
7.91852	0.00000	4828.39600
7.92235	0.00000	4828.39600
7.92618	0.00000	4828.39600
7.93002	0.00000	4828.39600
7.93385	0.00000	4831.10500
7.93770	0.00000	4831.10500
7.94155	0.00000	4831.10500
7.94538	0.00000	4831.10500
7.94923	0.00000	4831.10500
7.95306	0.00000	4831.10500
7.95690	0.00000	4837.23000
7.96073	0.00000	4837.23000
7.96456	0.00000	4837.23000
7.96840	0.00000	4837.23000
7.97223	0.00000	4837.23000
7.97606	0.00000	4837.23000
7.97990	0.00000	4830.28000
7.98374	0.00000	4830.28000
7.98758	0.00000	4830.28000
7.99141	0.00000	4830.28000
7.99525	0.00000	4830.28000
7.99908	0.00000	4830.28000
8.00291	0.00000	4822.58600
8.00675	0.00000	4822.58600
8.01058	0.00000	4822.58600
8.01441	0.00000	4822.58600
8.01824	0.00000	4822.58600
8.02208	0.00000	4822.58600
8.02591	0.00000	4823.74100
8.02974	0.00000	4823.74100
8.03358	0.00000	4823.74100
8.03741	0.00000	4823.74100
8.04124	0.00000	4823.74100
8.04508	0.00000	4823.74100
8.04891	0.00000	4832.97400
8.05274	0.00000	4832.97400
8.05657	0.00000	4832.97400
8.06041	0.00000	4832.97400
8.06424	0.00000	4832.97400
8.06807	0.00000	4832.97400
8.07190	0.00000	4829.54500
8.07575	0.00000	4829.54500
8.07959	0.00000	4829.54500
8.08343	0.00000	4829.54500
8.08726	0.00000	4829.54500
8.09109	0.00000	4829.54500
8.09492	0.00000	4826.43900
8.09876	0.00000	4826.43900
8.10259	0.00000	4826.43900
8.10642	0.00000	4826.43900
8.11025	0.00000	4826.43900
8.11409	0.00000	4826.43900
8.11792	0.00000	4835.66800
8.12175	0.00000	4835.66800
8.12560	0.00000	4835.66800
8.12943	0.00000	4835.66800
8.13327	0.00000	4835.66800
8.13710	0.00000	4832.67000
8.14093	0.00000	4832.67000
8.14476	0.00000	4832.67000
8.14859	0.00000	4832.67000
8.15243	0.00000	4832.67000
8.15627	0.00000	4832.67000
8.16010	0.00000	4827.24300
8.16394	0.00000	4827.24300
8.16777	0.00000	4827.24300
8.17161	0.00000	4827.24300
8.17543	0.00000	4827.24300
8.17927	0.00000	4827.24300
8.18311	0.00000	4839.92800
8.18693	0.00000	4839.92800
8.19077	0.00000	4839.92800
8.19462	0.00000	4839.92800
8.19846	0.00000	4839.92800
8.20229	0.00000	4839.92800
8.20612	0.00000	4836.09500
8.20996	0.00000	4836.09500
8.21379	0.00000	4836.09500
8.21762	0.00000	4836.09500
8.22145	0.00000	4836.09500
8.22528	0.00000	4836.09500
8.22911	0.00000	4830.69100
8.23295	0.00000	4830.69100
8.23678	0.00000	4830.69100
8.24061	0.00000	4830.69100
8.24445	0.00000	4830.69100
8.24829	0.00000	4830.69100
8.25212	0.00000	4837.23000
8.25594	0.00000	4837.23000
8.25978	0.00000	4837.23000
8.26361	0.00000	4837.23000
8.26744	0.00000	4837.23000
8.27128	0.00000	4837.23000
8.27511	0.00000	4832.97400
8.27894	0.00000	4832.97400
8.28279	0.00000	4832.97400
8.28662	0.00000	4832.97400
8.29045	0.00000	4832.97400
8.29428	0.00000	4832.97400
8.29811	0.00000	4821.04300
8.30194	0.00000	4821.04300
8.30578	0.00000	4821.04300
8.30961	0.00000	4821.04300
8.31344	0.00000	4821.04300
8.31728	0.00000	4821.04300
8.32111	0.00000	4822.19800
8.32494	0.00000	4822.19800
8.32877	0.00000	4822.19800
8.33261	0.00000	4822.19800
8.33644	0.00000	4822.19800
8.34028	0.00000	4822.19800
8.34416	0.00000	4834.53200
8.34802	0.00000	4834.53200
8.35188	0.00000	4834.53200
8.35572	0.00000	4834.53200
8.35957	0.00000	4834.53200
8.36341	0.00000	4834.53200
8.36725	0.00000	4834.95600
8.37109	0.00000	4834.95600
8.37493	0.00000	4834.95600
8.37878	0.00000	4834.95600
8.38261	0.00000	4834.95600
8.38643	0.00000	4824.53000
8.39027	0.00000	4824.53000
8.39410	0.00000	4824.53000
8.39793	0.00000	4824.53000
8.40177	0.00000	4824.53000
8.40561	0.00000	4824.53000
8.40944	0.00000	4829.54500
8.41327	0.00000	4829.54500
8.41710	0.00000	4829.54500
8.42094	0.00000	4829.54500
8.42478	0.00000	4829.54500
8.42862	0.00000	4829.54500
8.43245	0.00000	4831.83400
8.43630	0.00000	4831.83400
8.44014	0.00000	4831.83400
8.44394	0.00000	4831.83400
8.44778	0.00000	4831.83400
8.45163	0.00000	4831.83400
8.45546	0.00000	4846.44400
8.45930	0.00000	4846.44400
8.46313	0.00000	4846.44400
8.46696	0.00000	4846.44400
8.47079	0.00000	4846.44400
8.47462	0.00000	4846.44400
8.47845	0.00000	4839.92800
8.48228	0.00000	4839.92800
8.48611	0.00000	4839.92800
8.48996	0.00000	4839.92800
8.49379	0.00000	4839.92800
8.49762	0.00000	4839.92800
8.50145	0.00000	4824.89200
8.50528	0.00000	4824.89200
8.50912	0.00000	4824.89200
8.51295	0.00000	4824.89200
8.51678	0.00000	4824.89200
8.52062	0.00000	4824.89200
8.52445	0.00000	4833.39300
8.52828	0.00000	4833.39300
8.53210	0.00000	4833.39300
8.53593	0.00000	4833.39300
8.53976	0.00000	4833.39300
8.54359	0.00000	4833.39300
8.54742	0.00000	4827.58600
8.55125	0.00000	4827.58600
8.55509	0.00000	4827.58600
8.55893	0.00000	4827.58600
8.56276	0.00000	4827.58600
8.56659	0.00000	4827.58600
8.57043	0.00000	4836.80100
8.57426	0.00000	4836.80100
8.57809	0.00000	4836.80100
8.58192	0.00000	4836.80100
8.58575	0.00000	4836.80100
8.58958	0.00000	4836.80100
8.59341	0.00000	4831.83400
8.59724	0.00000	4831.83400
8.60108	0.00000	4831.83400
8.60491	0.00000	4831.83400
8.60875	0.00000	4831.83400
8.61257	0.00000	4831.83400
8.61640	0.00000	4837.23000
8.62023	0.00000	4837.23000
8.62406	0.00000	4837.23000
8.62790	0.00000	4837.23000
8.63174	0.00000	4837.23000
8.63557	0.00000	4840.81000
8.63939	0.00000	4840.81000
8.64322	0.00000	4840.81000
8.64707	0.00000	4840.81000
8.65091	0.00000	4840.81000
8.65474	0.00000	4840.81000
8.65858	0.00000	4834.95600
8.66241	0.00000	4834.95600
8.66624	0.00000	4834.95600
8.67008	0.00000	4834.95600
8.67390	0.00000	4834.95600
8.67774	0.00000	4834.95600
8.68156	0.00000	4829.13600
8.68540	0.00000	4829.13600
8.68925	0.00000	4829.13600
8.69308	0.00000	4829.13600
8.69690	0.00000	4829.13600
8.70074	0.00000	4829.13600
8.70458	0.00000	4835.66800
8.70842	0.00000	4835.66800
8.71225	0.00000	4835.66800
8.71608	0.00000	4835.66800
8.71992	0.00000	4835.66800
8.72376	0.00000	4835.66800
8.72759	0.00000	4835.66800
8.73143	0.00000	4835.66800
8.73527	0.00000	4835.66800
8.73910	0.00000	4835.66800
8.74295	0.00000	4835.66800
8.74679	0.00000	4835.66800
8.75064	0.00000	4838.36200
8.75447	0.00000	4838.36200
8.75831	0.00000	4838.36200
8.76215	0.00000	4838.36200
8.76598	0.00000	4838.36200
8.76982	0.00000	4838.36200
8.77365	0.00000	4835.66800
8.77748	0.00000	4835.66800
8.78131	0.00000	4835.66800
8.78515	0.00000	4835.66800
8.78899	0.00000	4835.66800
8.79283	0.00000	4835.66800
8.79667	0.00000	4846.44400
8.80050	0.00000	4846.44400
8.80435	0.00000	4846.44400
8.80819	0.00000	4846.44400
8.81203	0.00000	4846.44400
8.81587	0.00000	4846.44400
8.81971	0.00000	4838.36200
8.82355	0.00000	4838.36200
8.82738	0.00000	4838.36200
8.83122	0.00000	4838.36200
8.83507	0.00000	4838.36200
8.83890	0.00000	4838.36200
8.84274	0.00000	4830.28000
8.84658	0.00000	4830.28000
8.85042	0.00000	4830.28000
8.85426	0.00000	4830.28000
8.85810	0.00000	4830.28000
8.86193	0.00000	4830.28000
8.86577	0.00000	4834.53200
8.86959	0.00000	4834.53200
8.87343	0.00000	4834.53200
8.87726	0.00000	4834.53200
8.88109	0.00000	4834.53200
8.88492	0.00000	4833.81500
8.88874	0.00000	4833.81500
8.89258	0.00000	4833.81500
8.89641	0.00000	4833.81500
8.90025	0.00000	4833.81500
8.90409	0.00000	4833.81500
8.90793	0.00000	4845.77900
8.91178	0.00000	4845.77900
8.91562	0.00000	4845.77900
8.91946	0.00000	4845.77900
8.92329	0.00000	4845.77900
8.92712	0.00000	4845.77900
8.93096	0.00000	4838.79700
8.93479	0.00000	4838.79700
8.93862	0.00000	4838.79700
8.94245	0.00000	4838.79700
8.94629	0.00000	4838.79700
8.95012	0.00000	4838.79700
8.95396	0.00000	4838.36200
8.95779	0.00000	4838.36200
8.96162	0.00000	4838.36200
8.96545	0.00000	4838.36200
8.96929	0.00000	4838.36200
8.97314	0.00000	4838.36200
8.97698	0.00000	4831.83400
8.98081	0.00000	4831.83400
8.98465	0.00000	4831.83400
8.98849	0.00000	4831.83400
8.99233	0.00000	4831.83400
8.99617	0.00000	4831.83400
9.00000	0.00000	4839.49000
9.00383	0.00000	4839.49000
9.00766	0.00000	4839.49000
9.01149	0.00000	4839.49000
9.01532	0.00000	4839.49000
9.01916	0.00000	4839.49000
9.02300	0.00000	4835.66800
9.02683	0.00000	4835.66800
9.03066	0.00000	4835.66800
9.03449	0.00000	4835.66800
9.03832	0.00000	4835.66800
9.04216	0.00000	4835.66800
9.04600	0.00000	4837.23000
9.04983	0.00000	4837.23000
9.05367	0.00000	4837.23000
9.05751	0.00000	4837.23000
9.06135	0.00000	4837.23000
9.06519	0.00000	4837.23000
9.06903	0.00000	4843.75000
9.07287	0.00000	4843.75000
9.07671	0.00000	4843.75000
9.08055	0.00000	4843.75000
9.08439	0.00000	4843.75000
9.08822	0.00000	4843.75000
9.09206	0.00000	4834.53200
9.09590	0.00000	4834.53200
9.09975	0.00000	4834.53200
9.10357	0.00000	4834.53200
9.10740	0.00000	4834.53200
9.11123	0.00000	4834.53200
9.11506	0.00000	4826.43900
9.11889	0.00000	4826.43900
9.12272	0.00000	4826.43900
9.12655	0.00000	4826.43900
9.13038	0.00000	4826.43900
9.13421	0.00000	4826.43900
9.13803	0.00000	4832.25100
9.14189	0.00000	4832.25100
9.14573	0.00000	4832.25100
9.14956	0.00000	4832.25100
9.15340	0.00000	4832.25100
9.15725	0.00000	4844.65300
9.16108	0.00000	4844.65300
9.16492	0.00000	4844.65300
9.16876	0.00000	4844.65300
9.17259	0.00000	4844.65300
9.17641	0.00000	4844.65300
9.18024	0.00000	4832.25100
9.18408	0.00000	4832.25100
9.18791	0.00000	4832.25100
9.19175	0.00000	4832.25100
9.19558	0.00000	4832.25100
9.19941	0.00000	4832.25100
9.20325	0.00000	4830.28000
9.20708	0.00000	4830.28000
9.21091	0.00000	4830.28000
9.21475	0.00000	4830.28000
9.21859	0.00000	4830.28000
9.22242	0.00000	4830.28000
9.22627	0.00000	4844.87100
9.23011	0.00000	4844.87100
9.23395	0.00000	4844.87100
9.23779	0.00000	4844.87100
9.24163	0.00000	4844.87100
9.24547	0.00000	4844.87100
9.24931	0.00000	4835.66800
9.25315	0.00000	4835.66800
9.25700	0.00000	4835.66800
9.26083	0.00000	4835.66800
9.26468	0.00000	4835.66800
9.26851	0.00000	4835.66800
9.27235	0.00000	4831.83400
9.27619	0.00000	4831.83400
9.28002	0.00000	4831.83400
9.28385	0.00000	4831.83400
9.28769	0.00000	4831.83400
9.29152	0.00000	4831.83400
9.29535	0.00000	4834.53200
9.29919	0.00000	4834.53200
9.30303	0.00000	4834.53200
9.30686	0.00000	4834.53200
9.31069	0.00000	4834.53200
9.31453	0.00000	4834.53200
9.31837	0.00000	4834.11000
9.32220	0.00000	4834.11000
9.32604	0.00000	4834.11000
9.32988	0.00000	4834.11000
9.33371	0.00000	4834.11000
9.33755	0.00000	4834.11000
9.34138	0.00000	4835.66800
9.34521	0.00000	4835.66800
9.34904	0.00000	4835.66800
9.35288	0.00000	4835.66800
9.35671	0.00000	4835.66800
9.36055	0.00000	4835.66800
9.36438	0.00000	4843.75000
9.36821	0.00000	4843.75000
9.37204	0.00000	4843.75000
9.37588	0.00000	4843.75000
9.37971	0.00000	4843.75000
9.38354	0.00000	4843.75000
9.38737	0.00000	4844.20000
9.39120	0.00000	4844.20000
9.39504	0.00000	4844.20000
9.39888	0.00000	4844.20000
9.40272	0.00000	4844.20000
9.40656	0.00000	4841.94400
9.41038	0.00000	4841.94400
9.41422	0.00000	4841.94400
9.41805	0.00000	4841.94400
9.42188	0.00000	4841.94400
9.42572	0.00000	4841.94400
9.42956	0.00000	4841.94400
9.43340	0.00000	4841.94400
9.43723	0.00000	4841.94400
9.44106	0.00000	4841.94400
9.44489	0.00000	4841.94400
9.44872	0.00000	4841.94400
9.45256	0.00000	4839.49000
9.45639	0.00000	4839.49000
9.46023	0.00000	4839.49000
9.46406	0.00000	4839.49000
9.46790	0.00000	4839.49000
9.47174	0.00000	4839.49000
9.47558	0.00000	4842.18000
9.47942	0.00000	4842.18000
9.48326	0.00000	4842.18000
9.48709	0.00000	4842.18000
9.49093	0.00000	4842.18000
9.49477	0.00000	4842.18000
9.49861	0.00000	4843.30200
9.50246	0.00000	4843.30200
9.50630	0.00000	4843.30200
9.51013	0.00000	4843.30200
9.51397	0.00000	4843.30200
9.51782	0.00000	4843.30200
9.52165	0.00000	4841.05600
9.52548	0.00000	4841.05600
9.52931	0.00000	4841.05600
9.53314	0.00000	4841.05600
9.53697	0.00000	4841.05600
9.54080	0.00000	4841.05600
9.54464	0.00000	4839.92800
9.54849	0.00000	4839.92800
9.55234	0.00000	4839.92800
9.55618	0.00000	4839.92800
9.56002	0.00000	4839.92800
9.56386	0.00000	4839.92800
9.56770	0.00000	4839.49000
9.57153	0.00000	4839.49000
9.57537	0.00000	4839.49000
9.57921	0.00000	4839.49000
9.58304	0.00000	4839.49000
9.58687	0.00000	4839.49000
9.59071	0.00000	4834.11000
9.59455	0.00000	4834.11000
9.59839	0.00000	4834.11000
9.60223	0.00000	4834.11000
9.60606	0.00000	4834.11000
9.60989	0.00000	4834.11000
9.61371	0.00000	4831.83400
9.61754	0.00000	4831.83400
9.62137	0.00000	4831.83400
9.62520	0.00000	4831.83400
9.62903	0.00000	4831.83400
9.63286	0.00000	4831.83400
9.63671	0.00000	4835.66800
9.64054	0.00000	4835.66800
9.64437	0.00000	4835.66800
9.64820	0.00000	4835.66800
9.65204	0.00000	4835.66800
9.65588	0.00000	4835.66800
9.65972	0.00000	4834.53200
9.66356	0.00000	4834.53200
9.66740	0.00000	4834.53200
9.67124	0.00000	4834.53200
9.67508	0.00000	4834.53200
9.67891	0.00000	4850.07200
9.68276	0.00000	4850.07200
9.68660	0.00000	4850.07200
9.69044	0.00000	4850.07200
9.69427	0.00000	4850.07200
9.69810	0.00000	4850.07200
9.70193	0.00000	4837.66200
9.70576	0.00000	4837.66200
9.70960	0.00000	4837.66200
9.71343	0.00000	4837.66200
9.71726	0.00000	4837.66200
9.72109	0.00000	4837.66200
9.72492	0.00000	4841.49800
9.72875	0.00000	4841.49800
9.73258	0.00000	4841.49800
9.73642	0.00000	4841.49800
9.74025	0.00000	4841.49800
9.74408	0.00000	4841.49800
9.74792	0.00000	4837.23000
9.75176	0.00000	4837.23000
9.75561	0.00000	4837.23000
9.75943	0.00000	4837.23000
9.76327	0.00000	4837.23000
9.76710	0.00000	4837.23000
9.77093	0.00000	4831.83400
9.77476	0.00000	4831.83400
9.77859	0.00000	4831.83400
9.78243	0.00000	4831.83400
9.78625	0.00000	4831.83400
9.79008	0.00000	4831.83400
9.79391	0.00000	4837.23000
9.79775	0.00000	4837.23000
9.80158	0.00000	4837.23000
9.80541	0.00000	4837.23000
9.80925	0.00000	4837.23000
9.81309	0.00000	4837.23000
9.81692	0.00000	4838.36200
9.82076	0.00000	4838.36200
9.82460	0.00000	4838.36200
9.82844	0.00000	4838.36200
9.83227	0.00000	4838.36200
9.83611	0.00000	4838.36200
9.83994	0.00000	4832.97400
9.84378	0.00000	4832.97400
9.84761	0.00000	4832.97400
9.85145	0.00000	4832.97400
9.85528	0.00000	4832.97400
9.85913	0.00000	4832.97400
9.86295	0.00000	4832.97400
9.86678	0.00000	4832.97400
9.87062	0.00000	4832.97400
9.87446	0.00000	4832.97400
9.87829	0.00000	4832.97400
9.88212	0.00000	4832.97400
9.88596	0.00000	4843.75000
9.88980	0.00000	4843.75000
9.89364	0.00000	4843.75000
9.89748	0.00000	4843.75000
9.90132	0.00000	4843.75000
9.90516	0.00000	4843.75000
9.90899	0.00000	4832.97400
9.91282	0.00000	4832.97400
9.91666	0.00000	4832.97400
9.92048	0.00000	4832.97400
9.92432	0.00000	4832.97400
9.92816	0.00000	4843.52400
9.93194	0.00000	4843.52400
9.93577	0.00000	4843.52400
9.93960	0.00000	4843.52400
9.94342	0.00000	4843.52400
9.94726	0.00000	4843.52400
9.95110	0.00000	4840.36800
9.95494	0.00000	4840.36800
9.95877	0.00000	4840.36800
9.96261	0.00000	4840.36800
9.96646	0.00000	4840.36800
9.97029	0.00000	4840.36800
9.97413	0.00000	4845.32300
9.97797	0.00000	4845.32300
9.98181	0.00000	4845.32300
9.98564	0.00000	4845.32300
9.98948	0.00000	4845.32300
9.99331	0.00000	4845.32300
9.99715	0.00000	4848.67500
