Time (s)   Thrust (N)   RPM
0.00029	0.00000	5199.53800
0.00418	0.00000	5199.53800
0.00806	0.00000	5208.33300
0.01193	0.00000	5208.33300
0.01577	0.00000	5208.33300
0.01962	0.00000	5208.33300
0.02358	0.00000	5208.33300
0.02743	0.00000	5208.33300
0.03126	0.00000	5117.29200
0.03510	0.00000	5117.29200
0.03894	0.00000	5117.29200
0.04277	0.00000	5117.29200
0.04660	0.00000	5117.29200
0.05044	0.00000	5117.29200
0.05429	0.00000	4884.65600
0.05812	0.00000	4884.65600
0.06196	0.00000	4884.65600
0.06579	0.00000	4884.65600
0.06964	0.00000	4884.65600
0.07346	0.00000	4884.65600
0.07729	0.00000	4687.50000
0.08112	0.00000	4687.50000
0.08496	0.00000	4687.50000
0.08878	0.00000	4687.50000
0.09261	0.00000	4687.50000
0.09643	0.00000	4687.50000
0.10026	0.00000	4522.57000
0.10409	0.00000	4522.57000
0.10791	0.00000	4522.57000
0.11174	0.00000	4522.57000
0.11556	0.00000	4522.57000
0.11939	0.00000	4389.00000
0.12321	0.00000	4389.00000
0.12704	0.00000	4389.00000
0.13086	0.00000	4389.00000
0.13469	0.00000	4389.00000
0.13852	0.00000	4262.47900
0.14235	0.00000	4262.47900
0.14618	0.00000	4262.47900
0.15004	0.00000	4262.47900
0.15387	0.00000	4262.47900
0.15771	0.00000	4166.31800
0.16155	0.00000	4166.31800
0.16538	0.00000	4166.31800
0.16921	0.00000	4166.31800
0.17303	0.00000	4166.31800
0.17686	0.00000	4072.61500
0.18069	0.00000	4072.61500
0.18452	0.00000	4072.61500
0.18834	0.00000	4072.61500
0.19217	0.00000	4072.61500
0.19601	0.00000	4001.72100
0.19984	0.00000	4001.72100
0.20367	0.00000	4001.72100
0.20750	0.00000	4001.72100
0.21132	0.00000	4001.72100
0.21511	0.00000	3949.60700
0.21894	0.00000	3949.60700
0.22277	0.00000	3949.60700
0.22664	0.00000	3949.60700
0.23047	0.00000	3949.60700
0.23430	0.00000	3891.94500
0.23813	0.00000	3891.94500
0.24196	0.00000	3891.94500
0.24578	0.00000	3891.94500
0.24961	0.00000	3891.94500
0.25345	0.00000	3843.25000
0.25728	0.00000	3843.25000
0.26111	0.00000	3843.25000
0.26493	0.00000	3843.25000
0.26876	0.00000	3843.25000
0.27258	0.00000	3800.40300
0.27640	0.00000	3800.40300
0.28026	0.00000	3800.40300
0.28410	0.00000	3800.40300
0.28794	0.00000	3760.24600
0.29180	0.00000	3760.24600
0.29565	0.00000	3760.24600
0.29948	0.00000	3760.24600
0.30331	0.00000	3760.24600
0.30711	0.00000	3732.98500
0.31093	0.00000	3732.98500
0.31477	0.00000	3732.98500
0.31859	0.00000	3732.98500
0.32241	0.00000	3732.98500
0.32623	0.00000	3702.01100
0.33006	0.00000	3702.01100
0.33389	0.00000	3702.01100
0.33771	0.00000	3702.01100
0.34154	0.00000	3684.14900
0.34536	0.00000	3684.14900
0.34919	0.00000	3684.14900
0.35301	0.00000	3684.14900
0.35684	0.00000	3684.14900
0.36068	0.00000	3659.88900
0.36451	0.00000	3659.88900
0.36834	0.00000	3659.88900
0.37217	0.00000	3659.88900
0.37600	0.00000	3659.88900
0.37982	0.00000	3639.09400
0.38365	0.00000	3639.09400
0.38747	0.00000	3639.09400
0.39131	0.00000	3639.09400
0.39511	0.00000	3620.56900
0.39893	0.00000	3620.56900
0.40275	0.00000	3620.56900
0.40659	0.00000	3620.56900
0.41042	0.00000	3620.56900
0.41425	0.00000	3610.59500
0.41807	0.00000	3610.59500
0.42190	0.00000	3610.59500
0.42572	0.00000	3610.59500
0.42956	0.00000	3588.78500
0.43337	0.00000	3588.78500
0.43720	0.00000	3588.78500
0.44103	0.00000	3588.78500
0.44487	0.00000	3588.78500
0.44870	0.00000	3588.18000
0.45253	0.00000	3588.18000
0.45636	0.00000	3588.18000
0.46019	0.00000	3588.18000
0.46403	0.00000	3588.18000
0.46785	0.00000	3571.59500
0.47168	0.00000	3571.59500
0.47552	0.00000	3571.59500
0.47935	0.00000	3571.59500
0.48317	0.00000	3562.85300
0.48700	0.00000	3562.85300
0.49082	0.00000	3562.85300
0.49465	0.00000	3562.85300
0.49847	0.00000	3562.85300
0.50229	0.00000	3560.39300
0.50612	0.00000	3560.39300
0.50996	0.00000	3560.39300
0.51377	0.00000	3560.39300
0.51760	0.00000	3555.05600
0.52143	0.00000	3555.05600
0.52525	0.00000	3555.05600
0.52908	0.00000	3555.05600
0.53291	0.00000	3555.05600
0.53673	0.00000	3538.93000
0.54055	0.00000	3538.93000
0.54438	0.00000	3538.93000
0.54820	0.00000	3538.93000
0.55203	0.00000	3533.79000
0.55587	0.00000	3533.79000
0.55969	0.00000	3533.79000
0.56352	0.00000	3533.79000
0.56734	0.00000	3533.79000
0.57117	0.00000	3530.66000
0.57500	0.00000	3530.66000
0.57883	0.00000	3530.66000
0.58266	0.00000	3530.66000
0.58649	0.00000	3522.29600
0.59031	0.00000	3522.29600
0.59413	0.00000	3522.29600
0.59796	0.00000	3522.29600
0.60178	0.00000	3522.29600
0.60561	0.00000	3522.29600
0.60944	0.00000	3522.29600
0.61326	0.00000	3522.29600
0.61710	0.00000	3522.29600
0.62092	0.00000	3522.29600
0.62475	0.00000	3516.50900
0.62857	0.00000	3516.50900
0.63240	0.00000	3516.50900
0.63622	0.00000	3516.50900
0.64005	0.00000	3518.73800
0.64387	0.00000	3518.73800
0.64769	0.00000	3518.73800
0.65152	0.00000	3518.73800
0.65534	0.00000	3518.73800
0.65917	0.00000	3516.06800
0.66300	0.00000	3516.06800
0.66683	0.00000	3516.06800
0.67066	0.00000	3516.06800
0.67448	0.00000	3507.60400
0.67831	0.00000	3507.60400
0.68214	0.00000	3507.60400
0.68596	0.00000	3507.60400
0.68981	0.00000	3507.60400
0.69363	0.00000	3508.97900
0.69745	0.00000	3508.97900
0.70128	0.00000	3508.97900
0.70511	0.00000	3508.97900
0.70894	0.00000	3507.14300
0.71277	0.00000	3507.14300
0.71659	0.00000	3507.14300
0.72041	0.00000	3507.14300
0.72424	0.00000	3507.14300
0.72806	0.00000	3508.52200
0.73190	0.00000	3508.52200
0.73572	0.00000	3508.52200
0.73954	0.00000	3508.52200
0.74337	0.00000	3507.14300
0.74719	0.00000	3507.14300
0.75102	0.00000	3507.14300
0.75485	0.00000	3507.14300
0.75868	0.00000	3507.14300
0.76252	0.00000	3504.97100
0.76635	0.00000	3504.97100
0.77018	0.00000	3504.97100
0.77401	0.00000	3504.97100
0.77783	0.00000	3492.85700
0.78169	0.00000	3492.85700
0.78552	0.00000	3492.85700
0.78935	0.00000	3492.85700
0.79317	0.00000	3492.85700
0.79700	0.00000	3490.76600
0.80082	0.00000	3490.76600
0.80464	0.00000	3490.76600
0.80847	0.00000	3490.76600
0.81229	0.00000	3492.36600
0.81612	0.00000	3492.36600
0.81994	0.00000	3492.36600
0.82377	0.00000	3492.36600
0.82759	0.00000	3492.36600
0.83142	0.00000	3487.21500
0.83525	0.00000	3487.21500
0.83908	0.00000	3487.21500
0.84291	0.00000	3487.21500
0.84673	0.00000	3488.78800
0.85056	0.00000	3488.78800
0.85439	0.00000	3488.78800
0.85822	0.00000	3488.78800
0.86205	0.00000	3488.78800
0.86588	0.00000	3483.66400
0.86970	0.00000	3483.66400
0.87352	0.00000	3483.66400
0.87734	0.00000	3483.66400
0.88117	0.00000	3488.28800
0.88500	0.00000	3488.28800
0.88882	0.00000	3488.28800
0.89265	0.00000	3488.28800
0.89648	0.00000	3488.28800
0.90031	0.00000	3490.27500
0.90413	0.00000	3490.27500
0.90796	0.00000	3490.27500
0.91179	0.00000	3490.27500
0.91562	0.00000	3488.78800
0.91944	0.00000	3488.78800
0.92326	0.00000	3488.78800
0.92709	0.00000	3488.78800
0.93092	0.00000	3488.78800
0.93476	0.00000	3490.27500
0.93859	0.00000	3490.27500
0.94241	0.00000	3490.27500
0.94624	0.00000	3490.27500
0.95006	0.00000	3488.28800
0.95389	0.00000	3488.28800
0.95771	0.00000	3488.28800
0.96155	0.00000	3488.28800
0.96538	0.00000	3488.28800
0.96921	0.00000	3480.11300
0.97303	0.00000	3480.11300
0.97686	0.00000	3480.11300
0.98068	0.00000	3480.11300
0.98451	0.00000	3488.28800
0.98833	0.00000	3488.28800
0.99216	0.00000	3488.28800
0.99598	0.00000	3488.28800
0.99981	0.00000	3488.28800
1.00363	0.00000	3480.11300
1.00745	0.00000	3480.11300
1.01128	0.00000	3480.11300
1.01511	0.00000	3480.11300
1.01894	0.00000	3481.63100
1.02276	0.00000	3481.63100
1.02658	0.00000	3481.63100
1.03041	0.00000	3481.63100
1.03423	0.00000	3481.63100
1.03805	0.00000	3486.21600
1.04187	0.00000	3486.21600
1.04571	0.00000	3486.21600
1.04953	0.00000	3486.21600
1.05335	0.00000	3488.28800
1.05719	0.00000	3488.28800
1.06102	0.00000	3488.28800
1.06485	0.00000	3488.28800
1.06867	0.00000	3488.28800
1.07250	0.00000	3479.60100
1.07632	0.00000	3479.60100
1.08014	0.00000	3479.60100
1.08396	0.00000	3479.60100
1.08779	0.00000	3478.05300
1.09163	0.00000	3478.05300
1.09545	0.00000	3478.05300
1.09928	0.00000	3478.05300
1.10310	0.00000	3478.05300
1.10692	0.00000	3482.65200
1.11075	0.00000	3482.65200
1.11457	0.00000	3482.65200
1.11840	0.00000	3482.65200
1.12222	0.00000	3484.70300
1.12605	0.00000	3484.70300
1.12987	0.00000	3484.70300
1.13370	0.00000	3484.70300
1.13753	0.00000	3484.70300
1.14135	0.00000	3476.04300
1.14518	0.00000	3476.04300
1.14900	0.00000	3476.04300
1.15282	0.00000	3476.04300
1.15666	0.00000	3484.70300
1.16047	0.00000	3484.70300
1.16430	0.00000	3484.70300
1.16812	0.00000	3484.70300
1.17194	0.00000	3484.70300
1.17577	0.00000	3486.21600
1.17960	0.00000	3486.21600
1.18342	0.00000	3486.21600
1.18724	0.00000	3486.21600
1.19108	0.00000	3478.05300
1.19492	0.00000	3478.05300
1.19875	0.00000	3478.05300
1.20257	0.00000	3478.05300
1.20639	0.00000	3478.05300
1.21023	0.00000	3479.60100
1.21406	0.00000	3479.60100
1.21788	0.00000	3479.60100
1.22172	0.00000	3479.60100
1.22558	0.00000	3481.11800
1.22943	0.00000	3481.11800
1.23327	0.00000	3481.11800
1.23710	0.00000	3481.11800
1.24092	0.00000	3481.11800
1.24475	0.00000	3479.60100
1.24857	0.00000	3479.60100
1.25240	0.00000	3479.60100
1.25622	0.00000	3479.60100
1.26005	0.00000	3478.05300
1.26389	0.00000	3478.05300
1.26771	0.00000	3478.05300
1.27153	0.00000	3478.05300
1.27536	0.00000	3478.05300
1.27920	0.00000	3479.60100
1.28304	0.00000	3479.60100
1.28689	0.00000	3479.60100
1.29072	0.00000	3479.60100
1.29455	0.00000	3484.70300
1.29838	0.00000	3484.70300
1.30220	0.00000	3484.70300
1.30602	0.00000	3484.70300
1.30986	0.00000	3484.70300
1.31368	0.00000	3476.56200
1.31751	0.00000	3476.56200
1.32134	0.00000	3476.56200
1.32517	0.00000	3476.56200
1.32899	0.00000	3488.28800
1.33283	0.00000	3488.28800
1.33665	0.00000	3488.28800
1.34048	0.00000	3488.28800
1.34430	0.00000	3488.28800
1.34813	0.00000	3489.78100
1.35195	0.00000	3489.78100
1.35579	0.00000	3489.78100
1.35961	0.00000	3489.78100
1.36343	0.00000	3484.70300
1.36727	0.00000	3484.70300
1.37109	0.00000	3484.70300
1.37492	0.00000	3484.70300
1.37875	0.00000	3484.70300
1.38257	0.00000	3479.60100
1.38640	0.00000	3479.60100
1.39022	0.00000	3479.60100
1.39404	0.00000	3479.60100
1.39787	0.00000	3481.63100
1.40170	0.00000	3481.63100
1.40552	0.00000	3481.63100
1.40935	0.00000	3481.63100
1.41317	0.00000	3481.63100
1.41700	0.00000	3482.65200
1.42082	0.00000	3482.65200
1.42465	0.00000	3482.65200
1.42848	0.00000	3482.65200
1.43230	0.00000	3477.53300
1.43613	0.00000	3477.53300
1.43995	0.00000	3477.53300
1.44378	0.00000	3477.53300
1.44761	0.00000	3477.53300
1.45143	0.00000	3486.71700
1.45525	0.00000	3486.71700
1.45908	0.00000	3486.71700
1.46291	0.00000	3486.71700
1.46674	0.00000	3481.63100
1.47058	0.00000	3481.63100
1.47440	0.00000	3481.63100
1.47823	0.00000	3481.63100
1.48206	0.00000	3481.63100
1.48589	0.00000	3486.71700
1.48971	0.00000	3486.71700
1.49355	0.00000	3486.71700
1.49737	0.00000	3486.71700
1.50119	0.00000	3485.21000
1.50503	0.00000	3485.21000
1.50886	0.00000	3485.21000
1.51268	0.00000	3485.21000
1.51651	0.00000	3485.21000
1.52033	0.00000	3483.15900
1.52416	0.00000	3483.15900
1.52798	0.00000	3483.15900
1.53181	0.00000	3483.15900
1.53563	0.00000	3481.63100
1.53947	0.00000	3481.63100
1.54329	0.00000	3481.63100
1.54711	0.00000	3481.63100
1.55093	0.00000	3481.63100
1.55476	0.00000	3486.71700
1.55858	0.00000	3486.71700
1.56241	0.00000	3486.71700
1.56624	0.00000	3486.71700
1.57006	0.00000	3485.21000
1.57389	0.00000	3485.21000
1.57771	0.00000	3485.21000
1.58153	0.00000	3485.21000
1.58535	0.00000	3485.21000
1.58918	0.00000	3486.71700
1.59300	0.00000	3486.71700
1.59683	0.00000	3486.71700
1.60066	0.00000	3486.71700
1.60450	0.00000	3485.21000
1.60834	0.00000	3485.21000
1.61217	0.00000	3485.21000
1.61599	0.00000	3485.21000
1.61982	0.00000	3485.21000
1.62364	0.00000	3483.15900
1.62747	0.00000	3483.15900
1.63129	0.00000	3483.15900
1.63511	0.00000	3483.15900
1.63893	0.00000	3485.21000
1.64275	0.00000	3485.21000
1.64658	0.00000	3485.21000
1.65041	0.00000	3485.21000
1.65423	0.00000	3485.21000
1.65805	0.00000	3483.15900
1.66188	0.00000	3483.15900
1.66571	0.00000	3483.15900
1.66954	0.00000	3483.15900
1.67336	0.00000	3485.21000
1.67720	0.00000	3485.21000
1.68103	0.00000	3485.21000
1.68485	0.00000	3485.21000
1.68868	0.00000	3485.21000
1.69251	0.00000	3493.34600
1.69633	0.00000	3493.34600
1.70016	0.00000	3493.34600
1.70398	0.00000	3493.34600
1.70781	0.00000	3485.21000
1.71164	0.00000	3485.21000
1.71546	0.00000	3485.21000
1.71929	0.00000	3485.21000
1.72311	0.00000	3485.21000
1.72694	0.00000	3486.21600
1.73077	0.00000	3486.21600
1.73460	0.00000	3486.21600
1.73843	0.00000	3486.21600
1.74225	0.00000	3485.21000
1.74607	0.00000	3485.21000
1.74990	0.00000	3485.21000
1.75373	0.00000	3485.21000
1.75755	0.00000	3485.21000
1.76138	0.00000	3482.65200
1.76521	0.00000	3482.65200
1.76903	0.00000	3482.65200
1.77287	0.00000	3482.65200
1.77670	0.00000	3488.78800
1.78057	0.00000	3488.78800
1.78441	0.00000	3488.78800
1.78824	0.00000	3488.78800
1.79206	0.00000	3488.78800
1.79588	0.00000	3489.78100
1.79970	0.00000	3489.78100
1.80354	0.00000	3489.78100
1.80737	0.00000	3489.78100
1.81119	0.00000	3485.21000
1.81502	0.00000	3485.21000
1.81885	0.00000	3485.21000
1.82267	0.00000	3485.21000
1.82650	0.00000	3485.21000
1.83032	0.00000	3482.65200
1.83414	0.00000	3482.65200
1.83797	0.00000	3482.65200
1.84180	0.00000	3482.65200
1.84562	0.00000	3488.78800
1.84945	0.00000	3488.78800
1.85328	0.00000	3488.78800
1.85711	0.00000	3488.78800
1.86094	0.00000	3488.78800
1.86476	0.00000	3492.85700
1.86858	0.00000	3492.85700
1.87240	0.00000	3492.85700
1.87623	0.00000	3492.85700
1.88006	0.00000	3485.21000
1.88390	0.00000	3485.21000
1.88772	0.00000	3485.21000
1.89155	0.00000	3485.21000
1.89537	0.00000	3485.21000
1.89919	0.00000	3482.65200
1.90301	0.00000	3482.65200
1.90683	0.00000	3482.65200
1.91066	0.00000	3482.65200
1.91449	0.00000	3488.78800
1.91832	0.00000	3488.78800
1.92217	0.00000	3488.78800
1.92600	0.00000	3488.78800
1.92982	0.00000	3488.78800
1.93364	0.00000	3492.85700
1.93747	0.00000	3492.85700
1.94130	0.00000	3492.85700
1.94513	0.00000	3492.85700
1.94896	0.00000	3488.78800
1.95278	0.00000	3488.78800
1.95660	0.00000	3488.78800
1.96043	0.00000	3488.78800
1.96425	0.00000	3488.78800
1.96808	0.00000	3489.28500
1.97190	0.00000	3489.28500
1.97572	0.00000	3489.28500
1.97955	0.00000	3489.28500
1.98338	0.00000	3488.78800
1.98722	0.00000	3488.78800
1.99104	0.00000	3488.78800
1.99487	0.00000	3488.78800
1.99870	0.00000	3488.78800
2.00252	0.00000	3496.42800
2.00635	0.00000	3496.42800
2.01017	0.00000	3496.42800
2.01399	0.00000	3496.42800
2.01782	0.00000	3485.21000
2.02164	0.00000	3485.21000
2.02547	0.00000	3485.21000
2.02930	0.00000	3485.21000
2.03312	0.00000	3485.21000
2.03694	0.00000	3489.28500
2.04076	0.00000	3489.28500
2.04459	0.00000	3489.28500
2.04841	0.00000	3489.28500
2.05224	0.00000	3488.78800
2.05608	0.00000	3488.78800
2.05990	0.00000	3488.78800
2.06373	0.00000	3488.78800
2.06756	0.00000	3488.78800
2.07139	0.00000	3495.94400
2.07521	0.00000	3495.94400
2.07904	0.00000	3495.94400
2.08287	0.00000	3495.94400
2.08669	0.00000	3492.36600
2.09051	0.00000	3492.36600
2.09433	0.00000	3492.36600
2.09817	0.00000	3492.36600
2.10199	0.00000	3492.36600
2.10582	0.00000	3488.78800
2.10964	0.00000	3488.78800
2.11347	0.00000	3488.78800
2.11729	0.00000	3488.78800
2.12112	0.00000	3485.21000
2.12495	0.00000	3485.21000
2.12877	0.00000	3485.21000
2.13260	0.00000	3485.21000
2.13642	0.00000	3485.21000
2.14026	0.00000	3482.14200
2.14408	0.00000	3482.14200
2.14790	0.00000	3482.14200
2.15172	0.00000	3482.14200
2.15555	0.00000	3491.87300
2.15937	0.00000	3491.87300
2.16320	0.00000	3491.87300
2.16702	0.00000	3491.87300
2.17084	0.00000	3491.87300
2.17467	0.00000	3495.94400
2.17850	0.00000	3495.94400
2.18233	0.00000	3495.94400
2.18615	0.00000	3495.94400
2.18997	0.00000	3482.14200
2.19379	0.00000	3482.14200
2.19761	0.00000	3482.14200
2.20144	0.00000	3482.14200
2.20527	0.00000	3482.14200
2.20910	0.00000	3495.94400
2.21292	0.00000	3495.94400
2.21674	0.00000	3495.94400
2.22057	0.00000	3495.94400
2.22441	0.00000	3481.63100
2.22826	0.00000	3481.63100
2.23211	0.00000	3481.63100
2.23594	0.00000	3481.63100
2.23977	0.00000	3481.63100
2.24359	0.00000	3488.78800
2.24741	0.00000	3488.78800
2.25124	0.00000	3488.78800
2.25506	0.00000	3488.78800
2.25889	0.00000	3492.36600
2.26272	0.00000	3492.36600
2.26653	0.00000	3492.36600
2.27036	0.00000	3492.36600
2.27418	0.00000	3492.36600
2.27801	0.00000	3492.85700
2.28186	0.00000	3492.85700
2.28570	0.00000	3492.85700
2.28954	0.00000	3492.85700
2.29337	0.00000	3492.36600
2.29719	0.00000	3492.36600
2.30101	0.00000	3492.36600
2.30484	0.00000	3492.36600
2.30866	0.00000	3492.36600
2.31249	0.00000	3489.28500
2.31631	0.00000	3489.28500
2.32014	0.00000	3489.28500
2.32397	0.00000	3489.28500
2.32780	0.00000	3492.36600
2.33161	0.00000	3492.36600
2.33544	0.00000	3492.36600
2.33926	0.00000	3492.36600
2.34308	0.00000	3492.36600
2.34691	0.00000	3488.78800
2.35073	0.00000	3488.78800
2.35455	0.00000	3488.78800
2.35837	0.00000	3488.78800
2.36219	0.00000	3488.78800
2.36602	0.00000	3488.78800
2.36984	0.00000	3488.78800
2.37368	0.00000	3488.78800
2.37750	0.00000	3488.78800
2.38133	0.00000	3492.36600
2.38515	0.00000	3492.36600
2.38898	0.00000	3492.36600
2.39281	0.00000	3492.36600
2.39664	0.00000	3492.36600
2.40046	0.00000	3489.28500
2.40429	0.00000	3489.28500
2.40811	0.00000	3489.28500
2.41193	0.00000	3489.28500
2.41576	0.00000	3485.21000
2.41958	0.00000	3485.21000
2.42341	0.00000	3485.21000
2.42723	0.00000	3485.21000
2.43105	0.00000	3485.21000
2.43488	0.00000	3485.71400
2.43871	0.00000	3485.71400
2.44254	0.00000	3485.71400
2.44636	0.00000	3485.71400
2.45019	0.00000	3491.87300
2.45402	0.00000	3491.87300
2.45785	0.00000	3491.87300
2.46167	0.00000	3491.87300
2.46550	0.00000	3491.87300
2.46932	0.00000	3495.94400
2.47315	0.00000	3495.94400
2.47698	0.00000	3495.94400
2.48081	0.00000	3495.94400
2.48463	0.00000	3485.21000
2.48846	0.00000	3485.21000
2.49228	0.00000	3485.21000
2.49610	0.00000	3485.21000
2.49993	0.00000	3485.21000
2.50374	0.00000	3482.14200
2.50757	0.00000	3482.14200
2.51140	0.00000	3482.14200
2.51523	0.00000	3482.14200
2.51906	0.00000	3491.87300
2.52289	0.00000	3491.87300
2.52672	0.00000	3491.87300
2.53054	0.00000	3491.87300
2.53437	0.00000	3491.87300
2.53819	0.00000	3482.65200
2.54202	0.00000	3482.65200
2.54584	0.00000	3482.65200
2.54967	0.00000	3482.65200
2.55350	0.00000	3481.63100
2.55733	0.00000	3481.63100
2.56115	0.00000	3481.63100
2.56498	0.00000	3481.63100
2.56881	0.00000	3481.63100
2.57263	0.00000	3482.14200
2.57645	0.00000	3482.14200
2.58028	0.00000	3482.14200
2.58411	0.00000	3482.14200
2.58793	0.00000	3481.63100
2.59176	0.00000	3481.63100
2.59559	0.00000	3481.63100
2.59942	0.00000	3481.63100
2.60324	0.00000	3481.63100
2.60706	0.00000	3486.21600
2.61090	0.00000	3486.21600
2.61472	0.00000	3486.21600
2.61855	0.00000	3486.21600
2.62238	0.00000	3491.87300
2.62620	0.00000	3491.87300
2.63003	0.00000	3491.87300
2.63385	0.00000	3491.87300
2.63768	0.00000	3491.87300
2.64150	0.00000	3489.28500
2.64533	0.00000	3489.28500
2.64917	0.00000	3489.28500
2.65299	0.00000	3489.28500
2.65682	0.00000	3491.87300
2.66065	0.00000	3491.87300
2.66447	0.00000	3491.87300
2.66830	0.00000	3491.87300
2.67212	0.00000	3491.87300
2.67594	0.00000	3486.21600
2.67976	0.00000	3486.21600
2.68359	0.00000	3486.21600
2.68742	0.00000	3486.21600
2.69125	0.00000	3481.63100
2.69507	0.00000	3481.63100
2.69890	0.00000	3481.63100
2.70272	0.00000	3481.63100
2.70655	0.00000	3481.63100
2.71037	0.00000	3486.21600
2.71419	0.00000	3486.21600
2.71802	0.00000	3486.21600
2.72185	0.00000	3486.21600
2.72569	0.00000	3488.28800
2.72951	0.00000	3488.28800
2.73334	0.00000	3488.28800
2.73716	0.00000	3488.28800
2.74099	0.00000	3488.28800
2.74481	0.00000	3486.21600
2.74865	0.00000	3486.21600
2.75247	0.00000	3486.21600
2.75629	0.00000	3486.21600
2.76012	0.00000	3488.78800
2.76395	0.00000	3488.78800
2.76777	0.00000	3488.78800
2.77159	0.00000	3488.78800
2.77542	0.00000	3488.78800
2.77925	0.00000	3486.21600
2.78311	0.00000	3486.21600
2.78694	0.00000	3486.21600
2.79077	0.00000	3486.21600
2.79459	0.00000	3488.28800
2.79841	0.00000	3488.28800
2.80223	0.00000	3488.28800
2.80607	0.00000	3488.28800
2.80990	0.00000	3488.28800
2.81372	0.00000	3486.21600
2.81754	0.00000	3486.21600
2.82137	0.00000	3486.21600
2.82520	0.00000	3486.21600
2.82903	0.00000	3491.87300
2.83286	0.00000	3491.87300
2.83669	0.00000	3491.87300
2.84052	0.00000	3491.87300
2.84435	0.00000	3491.87300
2.84818	0.00000	3489.78100
2.85201	0.00000	3489.78100
2.85583	0.00000	3489.78100
2.85967	0.00000	3489.78100
2.86349	0.00000	3488.78800
2.86732	0.00000	3488.78800
2.87111	0.00000	3488.78800
2.87494	0.00000	3488.78800
2.87876	0.00000	3488.78800
2.88259	0.00000	3486.21600
2.88642	0.00000	3486.21600
2.89024	0.00000	3486.21600
2.89407	0.00000	3486.21600
2.89789	0.00000	3491.87300
2.90172	0.00000	3491.87300
2.90554	0.00000	3491.87300
2.90937	0.00000	3491.87300
2.91320	0.00000	3491.87300
2.91703	0.00000	3493.34600
2.92086	0.00000	3493.34600
2.92468	0.00000	3493.34600
2.92850	0.00000	3493.34600
2.93233	0.00000	3485.21000
2.93616	0.00000	3485.21000
2.93999	0.00000	3485.21000
2.94382	0.00000	3485.21000
2.94765	0.00000	3485.21000
2.95148	0.00000	3486.71700
2.95531	0.00000	3486.71700
2.95911	0.00000	3486.71700
2.96294	0.00000	3486.71700
2.96676	0.00000	3488.78800
2.97059	0.00000	3488.78800
2.97442	0.00000	3488.78800
2.97825	0.00000	3488.78800
2.98208	0.00000	3488.78800
2.98591	0.00000	3486.71700
2.98973	0.00000	3486.71700
2.99355	0.00000	3486.71700
2.99737	0.00000	3486.71700
3.00119	0.00000	3488.78800
3.00502	0.00000	3488.78800
3.00885	0.00000	3488.78800
3.01267	0.00000	3488.78800
3.01651	0.00000	3488.78800
3.02033	0.00000	3490.27500
3.02415	0.00000	3490.27500
3.02798	0.00000	3490.27500
3.03181	0.00000	3490.27500
3.03563	0.00000	3484.70300
3.03946	0.00000	3484.70300
3.04328	0.00000	3484.70300
3.04711	0.00000	3484.70300
3.05094	0.00000	3484.70300
3.05476	0.00000	3486.71700
3.05859	0.00000	3486.71700
3.06241	0.00000	3486.71700
3.06625	0.00000	3486.71700
3.07007	0.00000	3488.78800
3.07390	0.00000	3488.78800
3.07772	0.00000	3488.78800
3.08154	0.00000	3488.78800
3.08537	0.00000	3488.78800
3.08919	0.00000	3486.71700
3.09302	0.00000	3486.71700
3.09684	0.00000	3486.71700
3.10067	0.00000	3486.71700
3.10449	0.00000	3481.63100
3.10832	0.00000	3481.63100
3.11215	0.00000	3481.63100
3.11597	0.00000	3481.63100
3.11981	0.00000	3481.63100
3.12363	0.00000	3490.27500
3.12746	0.00000	3490.27500
3.13128	0.00000	3490.27500
3.13510	0.00000	3490.27500
3.13893	0.00000	3478.05300
3.14276	0.00000	3478.05300
3.14658	0.00000	3478.05300
3.15041	0.00000	3478.05300
3.15423	0.00000	3478.05300
3.15805	0.00000	3486.71700
3.16188	0.00000	3486.71700
3.16570	0.00000	3486.71700
3.16952	0.00000	3486.71700
3.17334	0.00000	3485.21000
3.17717	0.00000	3485.21000
3.18099	0.00000	3485.21000
3.18482	0.00000	3485.21000
3.18865	0.00000	3485.21000
3.19248	0.00000	3493.83300
3.19630	0.00000	3493.83300
3.20012	0.00000	3493.83300
3.20395	0.00000	3493.83300
3.20778	0.00000	3485.21000
3.21160	0.00000	3485.21000
3.21542	0.00000	3485.21000
3.21925	0.00000	3485.21000
3.22308	0.00000	3485.21000
3.22694	0.00000	3490.27500
3.23078	0.00000	3490.27500
3.23461	0.00000	3490.27500
3.23844	0.00000	3490.27500
3.24227	0.00000	3491.87300
3.24610	0.00000	3491.87300
3.24992	0.00000	3491.87300
3.25375	0.00000	3491.87300
3.25758	0.00000	3491.87300
3.26141	0.00000	3486.71700
3.26524	0.00000	3486.71700
3.26906	0.00000	3486.71700
3.27289	0.00000	3486.71700
3.27671	0.00000	3492.36600
3.28054	0.00000	3492.36600
3.28440	0.00000	3492.36600
3.28823	0.00000	3492.36600
3.29206	0.00000	3492.36600
3.29589	0.00000	3487.21500
3.29971	0.00000	3487.21500
3.30354	0.00000	3487.21500
3.30737	0.00000	3487.21500
3.31120	0.00000	3492.36600
3.31502	0.00000	3492.36600
3.31885	0.00000	3492.36600
3.32268	0.00000	3492.36600
3.32650	0.00000	3492.36600
3.33033	0.00000	3480.11300
3.33415	0.00000	3480.11300
3.33797	0.00000	3480.11300
3.34179	0.00000	3480.11300
3.34562	0.00000	3491.87300
3.34945	0.00000	3491.87300
3.35327	0.00000	3491.87300
3.35710	0.00000	3491.87300
3.36093	0.00000	3491.87300
3.36475	0.00000	3490.76600
3.36858	0.00000	3490.76600
3.37241	0.00000	3490.76600
3.37623	0.00000	3490.76600
3.38006	0.00000	3492.36600
3.38388	0.00000	3492.36600
3.38772	0.00000	3492.36600
3.39155	0.00000	3492.36600
3.39538	0.00000	3492.36600
3.39920	0.00000	3487.21500
3.40302	0.00000	3487.21500
3.40685	0.00000	3487.21500
3.41067	0.00000	3487.21500
3.41450	0.00000	3495.94400
3.41833	0.00000	3495.94400
3.42216	0.00000	3495.94400
3.42599	0.00000	3495.94400
3.42981	0.00000	3495.94400
3.43363	0.00000	3483.66400
3.43745	0.00000	3483.66400
3.44127	0.00000	3483.66400
3.44510	0.00000	3483.66400
3.44892	0.00000	3492.36600
3.45275	0.00000	3492.36600
3.45657	0.00000	3492.36600
3.46040	0.00000	3492.36600
3.46423	0.00000	3492.36600
3.46805	0.00000	3500.94800
3.47188	0.00000	3500.94800
3.47570	0.00000	3500.94800
3.47953	0.00000	3500.94800
3.48336	0.00000	3495.94400
3.48718	0.00000	3495.94400
3.49102	0.00000	3495.94400
3.49484	0.00000	3495.94400
3.49867	0.00000	3495.94400
3.50249	0.00000	3490.76600
3.50631	0.00000	3490.76600
3.51013	0.00000	3490.76600
3.51396	0.00000	3490.76600
3.51778	0.00000	3495.94400
3.52160	0.00000	3495.94400
3.52543	0.00000	3495.94400
3.52925	0.00000	3495.94400
3.53309	0.00000	3495.94400
3.53691	0.00000	3490.76600
3.54074	0.00000	3490.76600
3.54456	0.00000	3490.76600
3.54839	0.00000	3490.76600
3.55222	0.00000	3488.78800
3.55604	0.00000	3488.78800
3.55988	0.00000	3488.78800
3.56370	0.00000	3488.78800
3.56754	0.00000	3488.78800
3.57136	0.00000	3493.83300
3.57518	0.00000	3493.83300
3.57901	0.00000	3493.83300
3.58284	0.00000	3493.83300
3.58667	0.00000	3491.87300
3.59049	0.00000	3491.87300
3.59433	0.00000	3491.87300
3.59815	0.00000	3491.87300
3.60198	0.00000	3491.87300
3.60580	0.00000	3494.31800
3.60963	0.00000	3494.31800
3.61346	0.00000	3494.31800
3.61729	0.00000	3494.31800
3.62111	0.00000	3495.94400
3.62496	0.00000	3495.94400
3.62878	0.00000	3495.94400
3.63261	0.00000	3495.94400
3.63643	0.00000	3495.94400
3.64026	0.00000	3487.21500
3.64409	0.00000	3487.21500
3.64792	0.00000	3487.21500
3.65174	0.00000	3487.21500
3.65558	0.00000	3492.36600
3.65941	0.00000	3492.36600
3.66324	0.00000	3492.36600
3.66706	0.00000	3492.36600
3.67089	0.00000	3492.36600
3.67471	0.00000	3497.39000
3.67855	0.00000	3497.39000
3.68238	0.00000	3497.39000
3.68620	0.00000	3497.39000
3.69003	0.00000	3485.71400
3.69387	0.00000	3485.71400
3.69769	0.00000	3485.71400
3.70151	0.00000	3485.71400
3.70534	0.00000	3485.71400
3.70917	0.00000	3500.47500
3.71300	0.00000	3500.47500
3.71683	0.00000	3500.47500
3.72066	0.00000	3500.47500
3.72449	0.00000	3495.94400
3.72831	0.00000	3495.94400
3.73215	0.00000	3495.94400
3.73597	0.00000	3495.94400
3.73980	0.00000	3495.94400
3.74363	0.00000	3500.47500
3.74746	0.00000	3500.47500
3.75129	0.00000	3500.47500
3.75511	0.00000	3500.47500
3.75893	0.00000	3492.85700
3.76275	0.00000	3492.85700
3.76658	0.00000	3492.85700
3.77040	0.00000	3492.85700
3.77422	0.00000	3492.85700
3.77803	0.00000	3492.85700
3.78190	0.00000	3492.85700
3.78574	0.00000	3492.85700
3.78957	0.00000	3492.85700
3.79340	0.00000	3499.52200
3.79723	0.00000	3499.52200
3.80106	0.00000	3499.52200
3.80489	0.00000	3499.52200
3.80872	0.00000	3499.52200
3.81255	0.00000	3496.42800
3.81638	0.00000	3496.42800
3.82020	0.00000	3496.42800
3.82402	0.00000	3496.42800
3.82785	0.00000	3495.94400
3.83168	0.00000	3495.94400
3.83550	0.00000	3495.94400
3.83933	0.00000	3495.94400
3.84311	0.00000	3495.94400
3.84694	0.00000	3500.00000
3.85075	0.00000	3500.00000
3.85458	0.00000	3500.00000
3.85841	0.00000	3500.00000
3.86223	0.00000	3499.52200
3.86605	0.00000	3499.52200
3.86988	0.00000	3499.52200
3.87370	0.00000	3499.52200
3.87752	0.00000	3499.52200
3.88134	0.00000	3492.36600
3.88517	0.00000	3492.36600
3.88899	0.00000	3492.36600
3.89282	0.00000	3492.36600
3.89665	0.00000	3489.28500
3.90047	0.00000	3489.28500
3.90429	0.00000	3489.28500
3.90811	0.00000	3489.28500
3.91195	0.00000	3489.28500
3.91578	0.00000	3489.28500
3.91960	0.00000	3489.28500
3.92342	0.00000	3489.28500
3.92725	0.00000	3489.28500
3.93107	0.00000	3489.28500
3.93489	0.00000	3489.78100
3.93872	0.00000	3489.78100
3.94254	0.00000	3489.78100
3.94637	0.00000	3489.78100
3.95019	0.00000	3488.78800
3.95401	0.00000	3488.78800
3.95783	0.00000	3488.78800
3.96166	0.00000	3488.78800
3.96549	0.00000	3488.78800
3.96932	0.00000	3496.91000
3.97316	0.00000	3496.91000
3.97699	0.00000	3496.91000
3.98081	0.00000	3496.91000
3.98464	0.00000	3492.85700
3.98847	0.00000	3492.85700
3.99229	0.00000	3492.85700
3.99614	0.00000	3492.85700
3.99996	0.00000	3492.85700
4.00378	0.00000	3493.34600
4.00761	0.00000	3493.34600
4.01144	0.00000	3493.34600
4.01527	0.00000	3493.34600
4.01910	0.00000	3489.28500
4.02293	0.00000	3489.28500
4.02675	0.00000	3489.28500
4.03057	0.00000	3489.28500
4.03439	0.00000	3489.28500
4.03822	0.00000	3486.21600
4.04204	0.00000	3486.21600
4.04586	0.00000	3486.21600
4.04970	0.00000	3486.21600
4.05351	0.00000	3488.78800
4.05734	0.00000	3488.78800
4.06117	0.00000	3488.78800
4.06499	0.00000	3488.78800
4.06881	0.00000	3488.78800
4.07264	0.00000	3493.83300
4.07647	0.00000	3493.83300
4.08029	0.00000	3493.83300
4.08411	0.00000	3493.83300
4.08794	0.00000	3488.78800
4.09176	0.00000	3488.78800
4.09559	0.00000	3488.78800
4.09942	0.00000	3488.78800
4.10324	0.00000	3488.78800
4.10707	0.00000	3493.83300
4.11090	0.00000	3493.83300
4.11473	0.00000	3493.83300
4.11855	0.00000	3493.83300
4.12238	0.00000	3495.94400
4.12621	0.00000	3495.94400
4.13003	0.00000	3495.94400
4.13386	0.00000	3495.94400
4.13768	0.00000	3495.94400
4.14152	0.00000	3497.39000
4.14535	0.00000	3497.39000
4.14918	0.00000	3497.39000
4.15300	0.00000	3497.39000
4.15682	0.00000	3492.36600
4.16064	0.00000	3492.36600
4.16447	0.00000	3492.36600
4.16830	0.00000	3492.36600
4.17212	0.00000	3492.36600
4.17595	0.00000	3494.31800
4.17977	0.00000	3494.31800
4.18360	0.00000	3494.31800
4.18743	0.00000	3494.31800
4.19125	0.00000	3495.94400
4.19508	0.00000	3495.94400
4.19892	0.00000	3495.94400
4.20274	0.00000	3495.94400
4.20656	0.00000	3495.94400
4.21038	0.00000	3490.76600
4.21420	0.00000	3490.76600
4.21803	0.00000	3490.76600
4.22186	0.00000	3490.76600
4.22572	0.00000	3492.36600
4.22958	0.00000	3492.36600
4.23341	0.00000	3492.36600
4.23723	0.00000	3492.36600
4.24105	0.00000	3492.36600
4.24488	0.00000	3493.83300
4.24870	0.00000	3493.83300
4.25252	0.00000	3493.83300
4.25635	0.00000	3493.83300
4.26018	0.00000	3495.45800
4.26403	0.00000	3495.45800
4.26786	0.00000	3495.45800
4.27170	0.00000	3495.45800
4.27552	0.00000	3495.45800
4.27935	0.00000	3494.31800
4.28321	0.00000	3494.31800
4.28706	0.00000	3494.31800
4.29096	0.00000	3494.31800
4.29482	0.00000	3495.94400
4.29867	0.00000	3495.94400
4.30251	0.00000	3495.94400
4.30634	0.00000	3495.94400
4.31019	0.00000	3495.94400
4.31401	0.00000	3494.31800
4.31784	0.00000	3494.31800
4.32166	0.00000	3494.31800
4.32549	0.00000	3494.31800
4.32931	0.00000	3495.94400
4.33314	0.00000	3495.94400
4.33697	0.00000	3495.94400
4.34079	0.00000	3495.94400
4.34462	0.00000	3495.94400
4.34844	0.00000	3483.66400
4.35226	0.00000	3483.66400
4.35609	0.00000	3483.66400
4.35992	0.00000	3483.66400
4.36374	0.00000	3492.36600
4.36756	0.00000	3492.36600
4.37140	0.00000	3492.36600
4.37522	0.00000	3492.36600
4.37905	0.00000	3492.36600
4.38287	0.00000	3486.71700
4.38669	0.00000	3486.71700
4.39052	0.00000	3486.71700
4.39435	0.00000	3486.71700
4.39818	0.00000	3495.94400
4.40200	0.00000	3495.94400
4.40583	0.00000	3495.94400
4.40965	0.00000	3495.94400
4.41348	0.00000	3495.94400
4.41730	0.00000	3490.76600
4.42113	0.00000	3490.76600
4.42496	0.00000	3490.76600
4.42878	0.00000	3490.76600
4.43260	0.00000	3492.36600
4.43642	0.00000	3492.36600
4.44024	0.00000	3492.36600
4.44406	0.00000	3492.36600
4.44789	0.00000	3492.36600
4.45171	0.00000	3479.60100
4.45553	0.00000	3479.60100
4.45935	0.00000	3479.60100
4.46317	0.00000	3479.60100
4.46700	0.00000	3488.78800
4.47082	0.00000	3488.78800
4.47464	0.00000	3488.78800
4.47847	0.00000	3488.78800
4.48230	0.00000	3488.78800
4.48613	0.00000	3493.83300
4.48995	0.00000	3493.83300
4.49377	0.00000	3493.83300
4.49759	0.00000	3493.83300
4.50141	0.00000	3489.28500
4.50524	0.00000	3489.28500
4.50907	0.00000	3489.28500
4.51290	0.00000	3489.28500
4.51672	0.00000	3489.28500
4.52054	0.00000	3487.21500
4.52437	0.00000	3487.21500
4.52819	0.00000	3487.21500
4.53202	0.00000	3487.21500
4.53584	0.00000	3495.94400
4.53966	0.00000	3495.94400
4.54349	0.00000	3495.94400
4.54732	0.00000	3495.94400
4.55111	0.00000	3495.94400
4.55493	0.00000	3487.21500
4.55876	0.00000	3487.21500
4.56258	0.00000	3487.21500
4.56641	0.00000	3487.21500
4.57023	0.00000	3492.36600
4.57407	0.00000	3492.36600
4.57790	0.00000	3492.36600
4.58173	0.00000	3492.36600
4.58555	0.00000	3492.36600
4.58937	0.00000	3487.21500
4.59320	0.00000	3487.21500
4.59703	0.00000	3487.21500
4.60086	0.00000	3487.21500
4.60468	0.00000	3492.36600
4.60851	0.00000	3492.36600
4.61233	0.00000	3492.36600
4.61616	0.00000	3492.36600
4.61999	0.00000	3492.36600
4.62380	0.00000	3490.76600
4.62763	0.00000	3490.76600
4.63147	0.00000	3490.76600
4.63529	0.00000	3490.76600
4.63911	0.00000	3488.78800
4.64294	0.00000	3488.78800
4.64676	0.00000	3488.78800
4.65059	0.00000	3488.78800
4.65441	0.00000	3488.78800
4.65823	0.00000	3497.39000
4.66206	0.00000	3497.39000
4.66589	0.00000	3497.39000
4.66972	0.00000	3497.39000
4.67356	0.00000	3495.45800
4.67740	0.00000	3495.45800
4.68123	0.00000	3495.45800
4.68505	0.00000	3495.45800
4.68887	0.00000	3495.45800
4.69269	0.00000	3490.27500
4.69651	0.00000	3490.27500
4.70034	0.00000	3490.27500
4.70416	0.00000	3490.27500
4.70798	0.00000	3491.87300
4.71180	0.00000	3491.87300
4.71563	0.00000	3491.87300
4.71946	0.00000	3491.87300
4.72328	0.00000	3491.87300
4.72711	0.00000	3487.21500
4.73093	0.00000	3487.21500
4.73476	0.00000	3487.21500
4.73858	0.00000	3487.21500
4.74240	0.00000	3488.78800
4.74623	0.00000	3488.78800
4.75005	0.00000	3488.78800
4.75388	0.00000	3488.78800
4.75771	0.00000	3488.78800
4.76153	0.00000	3483.66400
4.76536	0.00000	3483.66400
4.76919	0.00000	3483.66400
4.77302	0.00000	3483.66400
4.77684	0.00000	3495.45800
4.78067	0.00000	3495.45800
4.78453	0.00000	3495.45800
4.78836	0.00000	3495.45800
4.79219	0.00000	3495.45800
4.79601	0.00000	3489.78100
4.79985	0.00000	3489.78100
4.80367	0.00000	3489.78100
4.80750	0.00000	3489.78100
4.81131	0.00000	3488.78800
4.81511	0.00000	3488.78800
4.81893	0.00000	3488.78800
4.82276	0.00000	3488.78800
4.82659	0.00000	3488.78800
4.83042	0.00000	3490.27500
4.83424	0.00000	3490.27500
4.83806	0.00000	3490.27500
4.84190	0.00000	3490.27500
4.84572	0.00000	3488.78800
4.84956	0.00000	3488.78800
4.85338	0.00000	3488.78800
4.85721	0.00000	3488.78800
4.86103	0.00000	3488.78800
4.86486	0.00000	3489.78100
4.86868	0.00000	3489.78100
4.87251	0.00000	3489.78100
4.87634	0.00000	3489.78100
4.88016	0.00000	3488.78800
4.88398	0.00000	3488.78800
4.88780	0.00000	3488.78800
4.89163	0.00000	3488.78800
4.89546	0.00000	3488.78800
4.89929	0.00000	3482.65200
4.90311	0.00000	3482.65200
4.90693	0.00000	3482.65200
4.91076	0.00000	3482.65200
4.91458	0.00000	3485.21000
4.91842	0.00000	3485.21000
4.92225	0.00000	3485.21000
4.92608	0.00000	3485.21000
4.92990	0.00000	3485.21000
4.93372	0.00000	3485.71400
4.93754	0.00000	3485.71400
4.94137	0.00000	3485.71400
4.94520	0.00000	3485.71400
4.94903	0.00000	3488.78800
4.95286	0.00000	3488.78800
4.95668	0.00000	3488.78800
4.96051	0.00000	3488.78800
4.96435	0.00000	3488.78800
4.96817	0.00000	3478.57100
4.97199	0.00000	3478.57100
4.97582	0.00000	3478.57100
4.97965	0.00000	3478.57100
4.98347	0.00000	3491.87300
4.98742	0.00000	3491.87300
4.99125	0.00000	3491.87300
4.99508	0.00000	3491.87300
4.99938	0.00000	3491.87300
5.00372	0.00000	3485.71400
5.00760	0.00000	3485.71400
5.01143	0.00000	3485.71400
5.01527	0.00000	3485.71400
5.01910	0.00000	3506.67900
5.02294	0.00000	3506.67900
5.02676	0.00000	3506.67900
5.03060	0.00000	3506.67900
5.03447	0.00000	3506.67900
5.03832	0.00000	3840.24000
5.04216	0.00000	3840.24000
5.04599	0.00000	3840.24000
5.04982	0.00000	3840.24000
5.05364	0.00000	3840.24000
5.05747	0.00000	4248.76800
5.06130	0.00000	4248.76800
5.06512	0.00000	4248.76800
5.06895	0.00000	4248.76800
5.07278	0.00000	4248.76800
5.07660	0.00000	4248.76800
5.08043	0.00000	4565.84000
5.08426	0.00000	4565.84000
5.08809	0.00000	4565.84000
5.09192	0.00000	4565.84000
5.09577	0.00000	4565.84000
5.09960	0.00000	4565.84000
5.10345	0.00000	4805.87800
5.10729	0.00000	4805.87800
5.11111	0.00000	4805.87800
5.11493	0.00000	4805.87800
5.11875	0.00000	4805.87800
5.12257	0.00000	4805.87800
5.12640	0.00000	4977.36700
5.13023	0.00000	4977.36700
5.13406	0.00000	4977.36700
5.13789	0.00000	4977.36700
5.14171	0.00000	4977.36700
5.14553	0.00000	4977.36700
5.14935	0.00000	5092.18500
5.15319	0.00000	5092.18500
5.15702	0.00000	5092.18500
5.16085	0.00000	5092.18500
5.16469	0.00000	5092.18500
5.16852	0.00000	5092.18500
5.17234	0.00000	5167.44000
5.17618	0.00000	5167.44000
5.18001	0.00000	5167.44000
5.18385	0.00000	5167.44000
5.18768	0.00000	5167.44000
5.19152	0.00000	5167.44000
5.19536	0.00000	5167.44000
5.19919	0.00000	5219.19800
5.20304	0.00000	5219.19800
5.20687	0.00000	5219.19800
5.21070	0.00000	5219.19800
5.21454	0.00000	5219.19800
5.21837	0.00000	5219.19800
5.22221	0.00000	5260.21400
5.22605	0.00000	5260.21400
5.22989	0.00000	5260.21400
5.23373	0.00000	5260.21400
5.23757	0.00000	5260.21400
5.24140	0.00000	5260.21400
5.24524	0.00000	5260.21400
5.24909	0.00000	5287.59600
5.25292	0.00000	5287.59600
5.25676	0.00000	5287.59600
5.26060	0.00000	5287.59600
5.26446	0.00000	5287.59600
5.26829	0.00000	5287.59600
5.27213	0.00000	5287.59600
5.27596	0.00000	5309.71300
5.27982	0.00000	5309.71300
5.28365	0.00000	5309.71300
5.28749	0.00000	5309.71300
5.29133	0.00000	5309.71300
5.29518	0.00000	5309.71300
5.29901	0.00000	5322.88900
5.30285	0.00000	5322.88900
5.30670	0.00000	5322.88900
5.31054	0.00000	5322.88900
5.31438	0.00000	5322.88900
5.31821	0.00000	5322.88900
5.32206	0.00000	5322.88900
5.32590	0.00000	5322.81000
5.32973	0.00000	5322.81000
5.33358	0.00000	5322.81000
5.33741	0.00000	5322.81000
5.34125	0.00000	5322.81000
5.34510	0.00000	5322.81000
5.34894	0.00000	5322.81000
5.35278	0.00000	5328.32300
5.35662	0.00000	5328.32300
5.36046	0.00000	5328.32300
5.36429	0.00000	5328.32300
5.36813	0.00000	5328.32300
5.37198	0.00000	5328.32300
5.37581	0.00000	5341.12600
5.37968	0.00000	5341.12600
5.38354	0.00000	5341.12600
5.38738	0.00000	5341.12600
5.39122	0.00000	5341.12600
5.39507	0.00000	5341.12600
5.39892	0.00000	5341.12600
5.40276	0.00000	5340.55000
5.40660	0.00000	5340.55000
5.41045	0.00000	5340.55000
5.41429	0.00000	5340.55000
5.41814	0.00000	5340.55000
5.42198	0.00000	5340.55000
5.42581	0.00000	5340.55000
5.42966	0.00000	5333.80600
5.43356	0.00000	5333.80600
5.43743	0.00000	5333.80600
5.44128	0.00000	5333.80600
5.44514	0.00000	5333.80600
5.44898	0.00000	5333.80600
5.45281	0.00000	5338.74000
5.45665	0.00000	5338.74000
5.46050	0.00000	5338.74000
5.46435	0.00000	5338.74000
5.46819	0.00000	5338.74000
5.47203	0.00000	5338.74000
5.47587	0.00000	5338.74000
5.47971	0.00000	5337.45200
5.48357	0.00000	5337.45200
5.48741	0.00000	5337.45200
5.49126	0.00000	5337.45200
5.49510	0.00000	5337.45200
5.49895	0.00000	5337.45200
5.50279	0.00000	5337.45200
5.50664	0.00000	5335.80900
5.51047	0.00000	5335.80900
5.51431	0.00000	5335.80900
5.51815	0.00000	5335.80900
5.52200	0.00000	5335.80900
5.52584	0.00000	5335.80900
5.52969	0.00000	5334.33900
5.53352	0.00000	5334.33900
5.53736	0.00000	5334.33900
5.54119	0.00000	5334.33900
5.54503	0.00000	5334.33900
5.54888	0.00000	5334.33900
5.55272	0.00000	5334.33900
5.55655	0.00000	5339.82900
5.56039	0.00000	5339.82900
5.56423	0.00000	5339.82900
5.56807	0.00000	5339.82900
5.57191	0.00000	5339.82900
5.57574	0.00000	5339.82900
5.57959	0.00000	5339.82900
5.58342	0.00000	5336.17400
5.58726	0.00000	5336.17400
5.59110	0.00000	5336.17400
5.59494	0.00000	5336.17400
5.59877	0.00000	5336.17400
5.60262	0.00000	5336.17400
5.60647	0.00000	5336.17400
5.61029	0.00000	5330.69600
5.61412	0.00000	5330.69600
5.61796	0.00000	5330.69600
5.62179	0.00000	5330.69600
5.62563	0.00000	5330.69600
5.62947	0.00000	5330.69600
5.63332	0.00000	5341.12600
5.63716	0.00000	5341.12600
5.64101	0.00000	5341.12600
5.64484	0.00000	5341.12600
5.64868	0.00000	5341.12600
5.65252	0.00000	5341.12600
5.65636	0.00000	5341.12600
5.66019	0.00000	5335.80900
5.66404	0.00000	5335.80900
5.66789	0.00000	5335.80900
5.67173	0.00000	5335.80900
5.67556	0.00000	5335.80900
5.67940	0.00000	5335.80900
5.68324	0.00000	5335.80900
5.68708	0.00000	5338.17900
5.69093	0.00000	5338.17900
5.69478	0.00000	5338.17900
5.69861	0.00000	5338.17900
5.70245	0.00000	5338.17900
5.70629	0.00000	5338.17900
5.71013	0.00000	5339.10400
5.71398	0.00000	5339.10400
5.71782	0.00000	5339.10400
5.72167	0.00000	5339.10400
5.72551	0.00000	5339.10400
5.72934	0.00000	5339.10400
5.73317	0.00000	5339.10400
5.73701	0.00000	5340.90800
5.74085	0.00000	5340.90800
5.74468	0.00000	5340.90800
5.74852	0.00000	5340.90800
5.75235	0.00000	5340.90800
5.75619	0.00000	5340.90800
5.76003	0.00000	5340.90800
5.76387	0.00000	5333.80600
5.76770	0.00000	5333.80600
5.77155	0.00000	5333.80600
5.77539	0.00000	5333.80600
5.77923	0.00000	5333.80600
5.78307	0.00000	5333.80600
5.78692	0.00000	5336.72100
5.79076	0.00000	5336.72100
5.79459	0.00000	5336.72100
5.79843	0.00000	5336.72100
5.80227	0.00000	5336.72100
5.80611	0.00000	5336.72100
5.80995	0.00000	5336.72100
5.81379	0.00000	5337.45200
5.81763	0.00000	5337.45200
5.82147	0.00000	5337.45200
5.82530	0.00000	5337.45200
5.82913	0.00000	5337.45200
5.83296	0.00000	5337.45200
5.83681	0.00000	5337.45200
5.84065	0.00000	5329.07200
5.84449	0.00000	5329.07200
5.84833	0.00000	5329.07200
5.85217	0.00000	5329.07200
5.85601	0.00000	5329.07200
5.85985	0.00000	5329.07200
5.86369	0.00000	5334.33900
5.86751	0.00000	5334.33900
5.87136	0.00000	5334.33900
5.87521	0.00000	5334.33900
5.87905	0.00000	5334.33900
5.88290	0.00000	5334.33900
5.88673	0.00000	5334.33900
5.89056	0.00000	5336.35500
5.89440	0.00000	5336.35500
5.89824	0.00000	5336.35500
5.90208	0.00000	5336.35500
5.90593	0.00000	5336.35500
5.90977	0.00000	5336.35500
5.91360	0.00000	5336.35500
5.91744	0.00000	5340.19000
5.92128	0.00000	5340.19000
5.92511	0.00000	5340.19000
5.92895	0.00000	5340.19000
5.93280	0.00000	5340.19000
5.93665	0.00000	5340.19000
5.94049	0.00000	5340.19000
5.94431	0.00000	5332.32800
5.94815	0.00000	5332.32800
5.95201	0.00000	5332.32800
5.95586	0.00000	5332.32800
5.95970	0.00000	5332.32800
5.96353	0.00000	5332.32800
5.96737	0.00000	5333.96900
5.97121	0.00000	5333.96900
5.97506	0.00000	5333.96900
5.97890	0.00000	5333.96900
5.98274	0.00000	5333.96900
5.98658	0.00000	5333.96900
5.99042	0.00000	5333.96900
5.99426	0.00000	5330.69600
5.99810	0.00000	5330.69600
6.00194	0.00000	5330.69600
6.00579	0.00000	5330.69600
6.00962	0.00000	5330.69600
6.01345	0.00000	5330.69600
6.01729	0.00000	5330.69600
6.02114	0.00000	5330.32300
6.02497	0.00000	5330.32300
6.02882	0.00000	5330.32300
6.03265	0.00000	5330.32300
6.03648	0.00000	5330.32300
6.04032	0.00000	5330.32300
6.04416	0.00000	5329.19800
6.04800	0.00000	5329.19800
6.05185	0.00000	5329.19800
6.05569	0.00000	5329.19800
6.05953	0.00000	5329.19800
6.06336	0.00000	5329.19800
6.06720	0.00000	5329.19800
6.07104	0.00000	5328.69800
6.07488	0.00000	5328.69800
6.07873	0.00000	5328.69800
6.08257	0.00000	5328.69800
6.08641	0.00000	5328.69800
6.09026	0.00000	5328.69800
6.09409	0.00000	5328.69800
6.09792	0.00000	5331.06800
6.10177	0.00000	5331.06800
6.10562	0.00000	5331.06800
6.10946	0.00000	5331.06800
6.11331	0.00000	5331.06800
6.11715	0.00000	5331.06800
6.12100	0.00000	5341.84600
6.12484	0.00000	5341.84600
6.12868	0.00000	5341.84600
6.13252	0.00000	5341.84600
6.13637	0.00000	5341.84600
6.14021	0.00000	5341.84600
6.14405	0.00000	5341.84600
6.14788	0.00000	5340.90800
6.15172	0.00000	5340.90800
6.15556	0.00000	5340.90800
6.15940	0.00000	5340.90800
6.16324	0.00000	5340.90800
6.16708	0.00000	5340.90800
6.17093	0.00000	5340.90800
6.17477	0.00000	5340.55000
6.17860	0.00000	5340.55000
6.18243	0.00000	5340.55000
6.18627	0.00000	5340.55000
6.19012	0.00000	5340.55000
6.19396	0.00000	5340.55000
6.19779	0.00000	5341.12600
6.20162	0.00000	5341.12600
6.20545	0.00000	5341.12600
6.20929	0.00000	5341.12600
6.21313	0.00000	5341.12600
6.21697	0.00000	5341.12600
6.22081	0.00000	5341.12600
6.22465	0.00000	5339.46700
6.22851	0.00000	5339.46700
6.23236	0.00000	5339.46700
6.23620	0.00000	5339.46700
6.24005	0.00000	5339.46700
6.24389	0.00000	5339.46700
6.24772	0.00000	5339.46700
6.25157	0.00000	5328.32300
6.25542	0.00000	5328.32300
6.25925	0.00000	5328.32300
6.26310	0.00000	5328.32300
6.26694	0.00000	5328.32300
6.27078	0.00000	5328.32300
6.27462	0.00000	5335.98700
6.27845	0.00000	5335.98700
6.28229	0.00000	5335.98700
6.28614	0.00000	5335.98700
6.29000	0.00000	5335.98700
6.29385	0.00000	5335.98700
6.29771	0.00000	5335.98700
6.30156	0.00000	5329.57400
6.30542	0.00000	5329.57400
6.30926	0.00000	5329.57400
6.31311	0.00000	5329.57400
6.31694	0.00000	5329.57400
6.32079	0.00000	5329.57400
6.32463	0.00000	5329.57400
6.32847	0.00000	5335.80900
6.33230	0.00000	5335.80900
6.33614	0.00000	5335.80900
6.33997	0.00000	5335.80900
6.34381	0.00000	5335.80900
6.34765	0.00000	5335.80900
6.35149	0.00000	5346.25100
6.35531	0.00000	5346.25100
6.35916	0.00000	5346.25100
6.36299	0.00000	5346.25100
6.36683	0.00000	5346.25100
6.37067	0.00000	5346.25100
6.37451	0.00000	5346.25100
6.37835	0.00000	5341.84600
6.38219	0.00000	5341.84600
6.38603	0.00000	5341.84600
6.38988	0.00000	5341.84600
6.39372	0.00000	5341.84600
6.39756	0.00000	5341.84600
6.40139	0.00000	5341.84600
6.40522	0.00000	5338.54200
6.40905	0.00000	5338.54200
6.41288	0.00000	5338.54200
6.41673	0.00000	5338.54200
6.42057	0.00000	5338.54200
6.42442	0.00000	5338.54200
6.42826	0.00000	5338.54200
6.43210	0.00000	5330.69600
6.43594	0.00000	5330.69600
6.43977	0.00000	5330.69600
6.44361	0.00000	5330.69600
6.44745	0.00000	5330.69600
6.45129	0.00000	5330.69600
6.45511	0.00000	5336.35500
6.45896	0.00000	5336.35500
6.46279	0.00000	5336.35500
6.46663	0.00000	5336.35500
6.47046	0.00000	5336.35500
6.47429	0.00000	5336.35500
6.47814	0.00000	5336.35500
6.48198	0.00000	5330.69600
6.48582	0.00000	5330.69600
6.48966	0.00000	5330.69600
6.49350	0.00000	5330.69600
6.49734	0.00000	5330.69600
6.50118	0.00000	5330.69600
6.50502	0.00000	5330.69600
6.50886	0.00000	5328.32300
6.51270	0.00000	5328.32300
6.51655	0.00000	5328.32300
6.52038	0.00000	5328.32300
6.52422	0.00000	5328.32300
6.52807	0.00000	5328.32300
6.53191	0.00000	5328.82200
6.53575	0.00000	5328.82200
6.53959	0.00000	5328.82200
6.54344	0.00000	5328.82200
6.54728	0.00000	5328.82200
6.55111	0.00000	5328.82200
6.55495	0.00000	5328.82200
6.55878	0.00000	5321.58700
6.56262	0.00000	5321.58700
6.56646	0.00000	5321.58700
6.57030	0.00000	5321.58700
6.57414	0.00000	5321.58700
6.57798	0.00000	5321.58700
6.58183	0.00000	5321.58700
6.58567	0.00000	5335.44300
6.58951	0.00000	5335.44300
6.59335	0.00000	5335.44300
6.59718	0.00000	5335.44300
6.60102	0.00000	5335.44300
6.60486	0.00000	5335.44300
6.60870	0.00000	5335.98700
6.61257	0.00000	5335.98700
6.61641	0.00000	5335.98700
6.62024	0.00000	5335.98700
6.62409	0.00000	5335.98700
6.62793	0.00000	5335.98700
6.63178	0.00000	5335.98700
6.63562	0.00000	5335.07600
6.63946	0.00000	5335.07600
6.64330	0.00000	5335.07600
6.64711	0.00000	5335.07600
6.65095	0.00000	5335.07600
6.65478	0.00000	5335.07600
6.65862	0.00000	5335.07600
6.66246	0.00000	5330.32300
6.66631	0.00000	5330.32300
6.67015	0.00000	5330.32300
6.67400	0.00000	5330.32300
6.67783	0.00000	5330.32300
6.68167	0.00000	5330.32300
6.68551	0.00000	5321.65600
6.68935	0.00000	5321.65600
6.69319	0.00000	5321.65600
6.69704	0.00000	5321.65600
6.70087	0.00000	5321.65600
6.70471	0.00000	5321.65600
6.70856	0.00000	5321.65600
6.71240	0.00000	5329.57400
6.71624	0.00000	5329.57400
6.72007	0.00000	5329.57400
6.72392	0.00000	5329.57400
6.72776	0.00000	5329.57400
6.73161	0.00000	5329.57400
6.73545	0.00000	5329.57400
6.73928	0.00000	5323.19400
6.74311	0.00000	5323.19400
6.74695	0.00000	5323.19400
6.75078	0.00000	5323.19400
6.75462	0.00000	5323.19400
6.75845	0.00000	5323.19400
6.76230	0.00000	5331.58400
6.76613	0.00000	5331.58400
6.76997	0.00000	5331.58400
6.77381	0.00000	5331.58400
6.77764	0.00000	5331.58400
6.78148	0.00000	5331.58400
6.78531	0.00000	5331.58400
6.78915	0.00000	5332.69900
6.79299	0.00000	5332.69900
6.79682	0.00000	5332.69900
6.80066	0.00000	5332.69900
6.80450	0.00000	5332.69900
6.80833	0.00000	5332.69900
6.81217	0.00000	5332.69900
6.81601	0.00000	5335.80900
6.81985	0.00000	5335.80900
6.82368	0.00000	5335.80900
6.82753	0.00000	5335.80900
6.83137	0.00000	5335.80900
6.83520	0.00000	5335.80900
6.83904	0.00000	5335.80900
6.84287	0.00000	5341.84600
6.84671	0.00000	5341.84600
6.85055	0.00000	5341.84600
6.85438	0.00000	5341.84600
6.85823	0.00000	5341.84600
6.86206	0.00000	5341.84600
6.86591	0.00000	5338.74000
6.86975	0.00000	5338.74000
6.87359	0.00000	5338.74000
6.87742	0.00000	5338.74000
6.88127	0.00000	5338.74000
6.88510	0.00000	5338.74000
6.88894	0.00000	5338.74000
6.89277	0.00000	5340.19000
6.89661	0.00000	5340.19000
6.90044	0.00000	5340.19000
6.90428	0.00000	5340.19000
6.90812	0.00000	5340.19000
6.91196	0.00000	5340.19000
6.91580	0.00000	5340.19000
6.91964	0.00000	5335.44300
6.92348	0.00000	5335.44300
6.92732	0.00000	5335.44300
6.93117	0.00000	5335.44300
6.93502	0.00000	5335.44300
6.93887	0.00000	5335.44300
6.94271	0.00000	5338.37600
6.94654	0.00000	5338.37600
6.95039	0.00000	5338.37600
6.95422	0.00000	5338.37600
6.95807	0.00000	5338.37600
6.96190	0.00000	5338.37600
6.96576	0.00000	5338.37600
6.96960	0.00000	5328.32300
6.97343	0.00000	5328.32300
6.97727	0.00000	5328.32300
6.98111	0.00000	5328.32300
6.98495	0.00000	5328.32300
6.98880	0.00000	5328.32300
6.99264	0.00000	5328.32300
6.99648	0.00000	5325.94900
7.00032	0.00000	5325.94900
7.00416	0.00000	5325.94900
7.00800	0.00000	5325.94900
7.01183	0.00000	5325.94900
7.01568	0.00000	5325.94900
7.01951	0.00000	5326.43300
7.02335	0.00000	5326.43300
7.02719	0.00000	5326.43300
7.03103	0.00000	5326.43300
7.03488	0.00000	5326.43300
7.03872	0.00000	5326.43300
7.04257	0.00000	5326.43300
7.04640	0.00000	5318.82900
7.05025	0.00000	5318.82900
7.05409	0.00000	5318.82900
7.05793	0.00000	5318.82900
7.06176	0.00000	5318.82900
7.06560	0.00000	5318.82900
7.06943	0.00000	5318.82900
7.07329	0.00000	5325.57000
7.07712	0.00000	5325.57000
7.08096	0.00000	5325.57000
7.08480	0.00000	5325.57000
7.08864	0.00000	5325.57000
7.09248	0.00000	5325.57000
7.09629	0.00000	5335.61800
7.10015	0.00000	5335.61800
7.10401	0.00000	5335.61800
7.10785	0.00000	5335.61800
7.11168	0.00000	5335.61800
7.11552	0.00000	5335.61800
7.11936	0.00000	5335.61800
7.12320	0.00000	5323.95700
7.12705	0.00000	5323.95700
7.13090	0.00000	5323.95700
7.13473	0.00000	5323.95700
7.13857	0.00000	5323.95700
7.14242	0.00000	5323.95700
7.14626	0.00000	5323.95700
7.15010	0.00000	5332.69900
7.15394	0.00000	5332.69900
7.15777	0.00000	5332.69900
7.16161	0.00000	5332.69900
7.16545	0.00000	5332.69900
7.16928	0.00000	5332.69900
7.17312	0.00000	5326.81300
7.17697	0.00000	5326.81300
7.18081	0.00000	5326.81300
7.18465	0.00000	5326.81300
7.18848	0.00000	5326.81300
7.19231	0.00000	5326.81300
7.19616	0.00000	5326.81300
7.20000	0.00000	5333.07000
7.20385	0.00000	5333.07000
7.20769	0.00000	5333.07000
7.21154	0.00000	5333.07000
7.21537	0.00000	5333.07000
7.21921	0.00000	5333.07000
7.22304	0.00000	5333.07000
7.22688	0.00000	5326.32700
7.23072	0.00000	5326.32700
7.23457	0.00000	5326.32700
7.23842	0.00000	5326.32700
7.24226	0.00000	5326.32700
7.24610	0.00000	5326.32700
7.24994	0.00000	5330.83500
7.25378	0.00000	5330.83500
7.25762	0.00000	5330.83500
7.26147	0.00000	5330.83500
7.26531	0.00000	5330.83500
7.26916	0.00000	5330.83500
7.27299	0.00000	5330.83500
7.27682	0.00000	5318.05200
7.28065	0.00000	5318.05200
7.28449	0.00000	5318.05200
7.28833	0.00000	5318.05200
7.29217	0.00000	5318.05200
7.29602	0.00000	5318.05200
7.29986	0.00000	5318.05200
7.30370	0.00000	5322.81000
7.30752	0.00000	5322.81000
7.31138	0.00000	5322.81000
7.31522	0.00000	5322.81000
7.31906	0.00000	5322.81000
7.32290	0.00000	5322.81000
7.32674	0.00000	5330.46000
7.33060	0.00000	5330.46000
7.33444	0.00000	5330.46000
7.33827	0.00000	5330.46000
7.34211	0.00000	5330.46000
7.34595	0.00000	5330.46000
7.34978	0.00000	5330.46000
7.35362	0.00000	5326.81300
7.35746	0.00000	5326.81300
7.36130	0.00000	5326.81300
7.36513	0.00000	5326.81300
7.36897	0.00000	5326.81300
7.37280	0.00000	5326.81300
7.37663	0.00000	5326.81300
7.38048	0.00000	5325.57000
7.38431	0.00000	5325.57000
7.38815	0.00000	5325.57000
7.39198	0.00000	5325.57000
7.39584	0.00000	5325.57000
7.39967	0.00000	5325.57000
7.40350	0.00000	5328.44400
7.40734	0.00000	5328.44400
7.41118	0.00000	5328.44400
7.41501	0.00000	5328.44400
7.41884	0.00000	5328.44400
7.42268	0.00000	5328.44400
7.42652	0.00000	5328.44400
7.43035	0.00000	5322.04200
7.43419	0.00000	5322.04200
7.43804	0.00000	5322.04200
7.44188	0.00000	5322.04200
7.44571	0.00000	5322.04200
7.44955	0.00000	5322.04200
7.45339	0.00000	5322.04200
7.45722	0.00000	5322.81000
7.46106	0.00000	5322.81000
7.46490	0.00000	5322.81000
7.46874	0.00000	5322.81000
7.47257	0.00000	5322.81000
7.47640	0.00000	5322.81000
7.48024	0.00000	5320.88100
7.48409	0.00000	5320.88100
7.48793	0.00000	5320.88100
7.49177	0.00000	5320.88100
7.49561	0.00000	5320.88100
7.49945	0.00000	5320.88100
7.50329	0.00000	5320.88100
7.50711	0.00000	5331.21000
7.51095	0.00000	5331.21000
7.51478	0.00000	5331.21000
7.51863	0.00000	5331.21000
7.52247	0.00000	5331.21000
7.52629	0.00000	5331.21000
7.53014	0.00000	5331.21000
7.53398	0.00000	5322.81000
7.53782	0.00000	5322.81000
7.54165	0.00000	5322.81000
7.54550	0.00000	5322.81000
7.54933	0.00000	5322.81000
7.55316	0.00000	5322.81000
7.55700	0.00000	5330.08300
7.56085	0.00000	5330.08300
7.56468	0.00000	5330.08300
7.56852	0.00000	5330.08300
7.57235	0.00000	5330.08300
7.57619	0.00000	5330.08300
7.58002	0.00000	5330.08300
7.58386	0.00000	5316.87900
7.58769	0.00000	5316.87900
7.59153	0.00000	5316.87900
7.59537	0.00000	5316.87900
7.59921	0.00000	5316.87900
7.60305	0.00000	5316.87900
7.60688	0.00000	5316.87900
7.61072	0.00000	5317.66200
7.61455	0.00000	5317.66200
7.61838	0.00000	5317.66200
7.62223	0.00000	5317.66200
7.62606	0.00000	5317.66200
7.62989	0.00000	5317.66200
7.63373	0.00000	5318.09400
7.63759	0.00000	5318.09400
7.64143	0.00000	5318.09400
7.64527	0.00000	5318.09400
7.64910	0.00000	5318.09400
7.65295	0.00000	5318.09400
7.65678	0.00000	5318.09400
7.66062	0.00000	5314.49000
7.66446	0.00000	5314.49000
7.66830	0.00000	5314.49000
7.67215	0.00000	5314.49000
7.67597	0.00000	5314.49000
7.67981	0.00000	5314.49000
7.68364	0.00000	5314.49000
7.68749	0.00000	5312.89700
7.69133	0.00000	5312.89700
7.69517	0.00000	5312.89700
7.69901	0.00000	5312.89700
7.70286	0.00000	5312.89700
7.70670	0.00000	5312.89700
7.71053	0.00000	5318.09400
7.71438	0.00000	5318.09400
7.71823	0.00000	5318.09400
7.72206	0.00000	5318.09400
7.72589	0.00000	5318.09400
7.72972	0.00000	5318.09400
7.73357	0.00000	5318.09400
7.73740	0.00000	5312.89700
7.74125	0.00000	5312.89700
7.74508	0.00000	5312.89700
7.74892	0.00000	5312.89700
7.75275	0.00000	5312.89700
7.75658	0.00000	5312.89700
7.76042	0.00000	5312.89700
7.76427	0.00000	5312.89700
7.76811	0.00000	5312.89700
7.77196	0.00000	5312.89700
7.77580	0.00000	5312.89700
7.77963	0.00000	5312.89700
7.78347	0.00000	5312.89700
7.78730	0.00000	5318.09400
7.79117	0.00000	5318.09400
7.79501	0.00000	5318.09400
7.79884	0.00000	5318.09400
7.80269	0.00000	5318.09400
7.80652	0.00000	5318.09400
7.81036	0.00000	5318.09400
7.81420	0.00000	5308.13200
7.81804	0.00000	5308.13200
7.82187	0.00000	5308.13200
7.82571	0.00000	5308.13200
7.82954	0.00000	5308.13200
7.83339	0.00000	5308.13200
7.83723	0.00000	5308.13200
7.84108	0.00000	5320.04400
7.84492	0.00000	5320.04400
7.84876	0.00000	5320.04400
7.85260	0.00000	5320.04400
7.85644	0.00000	5320.04400
7.86028	0.00000	5320.04400
7.86413	0.00000	5314.09400
7.86797	0.00000	5314.09400
7.87181	0.00000	5314.09400
7.87566	0.00000	5314.09400
7.87949	0.00000	5314.09400
7.88332	0.00000	5314.09400
7.88716	0.00000	5314.09400
7.89101	0.00000	5317.66200
7.89485	0.00000	5317.66200
7.89870	0.00000	5317.66200
7.90254	0.00000	5317.66200
7.90637	0.00000	5317.66200
7.91021	0.00000	5317.66200
7.91404	0.00000	5317.66200
7.91788	0.00000	5310.91300
7.92173	0.00000	5310.91300
7.92556	0.00000	5310.91300
7.92941	0.00000	5310.91300
7.93325	0.00000	5310.91300
7.93708	0.00000	5310.91300
7.94093	0.00000	5318.09400
7.94478	0.00000	5318.09400
7.94862	0.00000	5318.09400
7.95246	0.00000	5318.09400
7.95629	0.00000	5318.09400
7.96013	0.00000	5318.09400
7.96396	0.00000	5318.09400
7.96781	0.00000	5312.89700
7.97165	0.00000	5312.89700
7.97548	0.00000	5312.89700
7.97932	0.00000	5312.89700
7.98317	0.00000	5312.89700
7.98701	0.00000	5312.89700
7.99084	0.00000	5312.89700
7.99468	0.00000	5314.88500
7.99853	0.00000	5314.88500
8.00237	0.00000	5314.88500
8.00620	0.00000	5314.88500
8.01004	0.00000	5314.88500
8.01387	0.00000	5314.88500
8.01772	0.00000	5318.09400
8.02158	0.00000	5318.09400
8.02541	0.00000	5318.09400
8.02925	0.00000	5318.09400
8.03308	0.00000	5318.09400
8.03694	0.00000	5318.09400
8.04077	0.00000	5318.09400
8.04462	0.00000	5312.89700
8.04845	0.00000	5312.89700
8.05229	0.00000	5312.89700
8.05612	0.00000	5312.89700
8.05997	0.00000	5312.89700
8.06382	0.00000	5312.89700
8.06765	0.00000	5312.89700
8.07149	0.00000	5317.66200
8.07534	0.00000	5317.66200
8.07918	0.00000	5317.66200
8.08301	0.00000	5317.66200
8.08686	0.00000	5317.66200
8.09069	0.00000	5317.66200
8.09454	0.00000	5326.05200
8.09837	0.00000	5326.05200
8.10222	0.00000	5326.05200
8.10605	0.00000	5326.05200
8.10990	0.00000	5326.05200
8.11374	0.00000	5326.05200
8.11757	0.00000	5326.05200
8.12142	0.00000	5316.06400
8.12526	0.00000	5316.06400
8.12910	0.00000	5316.06400
8.13292	0.00000	5316.06400
8.13676	0.00000	5316.06400
8.14061	0.00000	5316.06400
8.14446	0.00000	5316.06400
8.14828	0.00000	5317.27100
8.15212	0.00000	5317.27100
8.15595	0.00000	5317.27100
8.15981	0.00000	5317.27100
8.16364	0.00000	5317.27100
8.16750	0.00000	5317.27100
8.17134	0.00000	5315.69700
8.17517	0.00000	5315.69700
8.17901	0.00000	5315.69700
8.18284	0.00000	5315.69700
8.18668	0.00000	5315.69700
8.19053	0.00000	5315.69700
8.19436	0.00000	5315.69700
8.19820	0.00000	5310.51400
8.20204	0.00000	5310.51400
8.20588	0.00000	5310.51400
8.20973	0.00000	5310.51400
8.21355	0.00000	5310.51400
8.21739	0.00000	5310.51400
8.22124	0.00000	5310.51400
8.22507	0.00000	5311.70200
8.22890	0.00000	5311.70200
8.23274	0.00000	5311.70200
8.23658	0.00000	5311.70200
8.24041	0.00000	5311.70200
8.24425	0.00000	5311.70200
8.24809	0.00000	5318.09400
8.25192	0.00000	5318.09400
8.25577	0.00000	5318.09400
8.25959	0.00000	5318.09400
8.26344	0.00000	5318.09400
8.26728	0.00000	5318.09400
8.27111	0.00000	5318.09400
8.27495	0.00000	5310.51400
8.27878	0.00000	5310.51400
8.28262	0.00000	5310.51400
8.28646	0.00000	5310.51400
8.29030	0.00000	5310.51400
8.29413	0.00000	5310.51400
8.29796	0.00000	5311.30200
8.30180	0.00000	5311.30200
8.30565	0.00000	5311.30200
8.30949	0.00000	5311.30200
8.31333	0.00000	5311.30200
8.31716	0.00000	5311.30200
8.32101	0.00000	5311.30200
8.32485	0.00000	5318.48600
8.32868	0.00000	5318.48600
8.33251	0.00000	5318.48600
8.33634	0.00000	5318.48600
8.34018	0.00000	5318.48600
8.34402	0.00000	5318.48600
8.34785	0.00000	5318.48600
8.35169	0.00000	5312.89700
8.35553	0.00000	5312.89700
8.35936	0.00000	5312.89700
8.36320	0.00000	5312.89700
8.36704	0.00000	5312.89700
8.37087	0.00000	5312.89700
8.37471	0.00000	5315.69700
8.37855	0.00000	5315.69700
8.38237	0.00000	5315.69700
8.38621	0.00000	5315.69700
8.39004	0.00000	5315.69700
8.39387	0.00000	5315.69700
8.39771	0.00000	5315.69700
8.40154	0.00000	5316.48600
8.40539	0.00000	5316.48600
8.40924	0.00000	5316.48600
8.41308	0.00000	5316.48600
8.41692	0.00000	5316.48600
8.42075	0.00000	5316.48600
8.42459	0.00000	5316.48600
8.42843	0.00000	5312.89700
8.43227	0.00000	5312.89700
8.43611	0.00000	5312.89700
8.43994	0.00000	5312.89700
8.44377	0.00000	5312.89700
8.44761	0.00000	5312.89700
8.45144	0.00000	5320.49200
8.45529	0.00000	5320.49200
8.45911	0.00000	5320.49200
8.46294	0.00000	5320.49200
8.46677	0.00000	5320.49200
8.47061	0.00000	5320.49200
8.47444	0.00000	5320.49200
8.47829	0.00000	5316.48600
8.48213	0.00000	5316.48600
8.48599	0.00000	5316.48600
8.48982	0.00000	5316.48600
8.49367	0.00000	5316.48600
8.49750	0.00000	5316.48600
8.50133	0.00000	5316.48600
8.50517	0.00000	5315.67200
8.50902	0.00000	5315.67200
8.51286	0.00000	5315.67200
8.51669	0.00000	5315.67200
8.52053	0.00000	5315.67200
8.52437	0.00000	5315.67200
8.52822	0.00000	5318.48600
8.53205	0.00000	5318.48600
8.53589	0.00000	5318.48600
8.53974	0.00000	5318.48600
8.54357	0.00000	5318.48600
8.54741	0.00000	5318.48600
8.55125	0.00000	5318.48600
8.55511	0.00000	5308.13200
8.55894	0.00000	5308.13200
8.56279	0.00000	5308.13200
8.56663	0.00000	5308.13200
8.57048	0.00000	5308.13200
8.57431	0.00000	5308.13200
8.57816	0.00000	5308.13200
8.58201	0.00000	5315.67200
8.58584	0.00000	5315.67200
8.58968	0.00000	5315.67200
8.59351	0.00000	5315.67200
8.59735	0.00000	5315.67200
8.60119	0.00000	5315.67200
8.60502	0.00000	5318.48600
8.60888	0.00000	5318.48600
8.61272	0.00000	5318.48600
8.61655	0.00000	5318.48600
8.62038	0.00000	5318.48600
8.62422	0.00000	5318.48600
8.62807	0.00000	5318.48600
8.63191	0.00000	5317.66200
8.63575	0.00000	5317.66200
8.63960	0.00000	5317.66200
8.64343	0.00000	5317.66200
8.64728	0.00000	5317.66200
8.65111	0.00000	5317.66200
8.65496	0.00000	5317.66200
8.65880	0.00000	5317.27100
8.66264	0.00000	5317.27100
8.66648	0.00000	5317.27100
8.67034	0.00000	5317.27100
8.67418	0.00000	5317.27100
8.67802	0.00000	5317.27100
8.68185	0.00000	5322.88900
8.68571	0.00000	5322.88900
8.68955	0.00000	5322.88900
8.69339	0.00000	5322.88900
8.69723	0.00000	5322.88900
8.70107	0.00000	5322.88900
8.70491	0.00000	5322.88900
8.70874	0.00000	5322.81000
8.71258	0.00000	5322.81000
8.71641	0.00000	5322.81000
8.72025	0.00000	5322.81000
8.72409	0.00000	5322.81000
8.72793	0.00000	5322.81000
8.73177	0.00000	5322.81000
8.73561	0.00000	5315.67200
8.73945	0.00000	5315.67200
8.74330	0.00000	5315.67200
8.74711	0.00000	5315.67200
8.75094	0.00000	5315.67200
8.75480	0.00000	5315.67200
8.75863	0.00000	5320.88100
8.76249	0.00000	5320.88100
8.76632	0.00000	5320.88100
8.77017	0.00000	5320.88100
8.77401	0.00000	5320.88100
8.77786	0.00000	5320.88100
8.78169	0.00000	5320.88100
8.78554	0.00000	5324.80900
8.78937	0.00000	5324.80900
8.79321	0.00000	5324.80900
8.79705	0.00000	5324.80900
8.80089	0.00000	5324.80900
8.80473	0.00000	5324.80900
8.80857	0.00000	5324.80900
8.81240	0.00000	5317.66200
8.81625	0.00000	5317.66200
8.82009	0.00000	5317.66200
8.82394	0.00000	5317.66200
8.82778	0.00000	5317.66200
8.83162	0.00000	5317.66200
8.83545	0.00000	5313.29900
8.83931	0.00000	5313.29900
8.84311	0.00000	5313.29900
8.84697	0.00000	5313.29900
8.85081	0.00000	5313.29900
8.85466	0.00000	5313.29900
8.85849	0.00000	5313.29900
8.86233	0.00000	5314.88500
8.86617	0.00000	5314.88500
8.87000	0.00000	5314.88500
8.87385	0.00000	5314.88500
8.87770	0.00000	5314.88500
8.88154	0.00000	5314.88500
8.88538	0.00000	5314.88500
8.88922	0.00000	5315.27900
8.89306	0.00000	5315.27900
8.89690	0.00000	5315.27900
8.90074	0.00000	5315.27900
8.90457	0.00000	5315.27900
8.90842	0.00000	5315.27900
8.91226	0.00000	5320.49200
8.91610	0.00000	5320.49200
8.91995	0.00000	5320.49200
8.92379	0.00000	5320.49200
8.92762	0.00000	5320.49200
8.93146	0.00000	5320.49200
8.93530	0.00000	5320.49200
8.93911	0.00000	5315.27900
8.94295	0.00000	5315.27900
8.94678	0.00000	5315.27900
8.95062	0.00000	5315.27900
8.95446	0.00000	5315.27900
8.95830	0.00000	5315.27900
8.96213	0.00000	5315.27900
8.96596	0.00000	5317.66200
8.96979	0.00000	5317.66200
8.97362	0.00000	5317.66200
8.97746	0.00000	5317.66200
8.98130	0.00000	5317.66200
8.98513	0.00000	5317.66200
8.98897	0.00000	5318.87800
8.99281	0.00000	5318.87800
8.99664	0.00000	5318.87800
9.00048	0.00000	5318.87800
9.00431	0.00000	5318.87800
9.00815	0.00000	5318.87800
9.01200	0.00000	5318.87800
9.01584	0.00000	5325.57000
9.01967	0.00000	5325.57000
9.02352	0.00000	5325.57000
9.02735	0.00000	5325.57000
9.03119	0.00000	5325.57000
9.03503	0.00000	5325.57000
9.03886	0.00000	5325.57000
9.04271	0.00000	5327.57000
9.04655	0.00000	5327.57000
9.05039	0.00000	5327.57000
9.05422	0.00000	5327.57000
9.05806	0.00000	5327.57000
9.06190	0.00000	5327.57000
9.06573	0.00000	5323.27600
9.06957	0.00000	5323.27600
9.07341	0.00000	5323.27600
9.07724	0.00000	5323.27600
9.08108	0.00000	5323.27600
9.08492	0.00000	5323.27600
9.08876	0.00000	5323.27600
9.09260	0.00000	5313.29300
9.09644	0.00000	5313.29300
9.10028	0.00000	5313.29300
9.10411	0.00000	5313.29300
9.10794	0.00000	5313.29300
9.11177	0.00000	5313.29300
9.11560	0.00000	5313.29300
9.11944	0.00000	5310.51400
9.12328	0.00000	5310.51400
9.12711	0.00000	5310.51400
9.13094	0.00000	5310.51400
9.13478	0.00000	5310.51400
9.13863	0.00000	5310.51400
9.14246	0.00000	5316.09200
9.14629	0.00000	5316.09200
9.15012	0.00000	5316.09200
9.15397	0.00000	5316.09200
9.15780	0.00000	5316.09200
9.16165	0.00000	5316.09200
9.16548	0.00000	5316.09200
9.16932	0.00000	5315.67200
9.17315	0.00000	5315.67200
9.17699	0.00000	5315.67200
9.18083	0.00000	5315.67200
9.18466	0.00000	5315.67200
9.18851	0.00000	5315.67200
9.19235	0.00000	5315.67200
9.19618	0.00000	5315.27900
9.20003	0.00000	5315.27900
9.20387	0.00000	5315.27900
9.20770	0.00000	5315.27900
9.21155	0.00000	5315.27900
9.21537	0.00000	5315.27900
9.21921	0.00000	5313.29900
9.22305	0.00000	5313.29900
9.22691	0.00000	5313.29900
9.23074	0.00000	5313.29900
9.23458	0.00000	5313.29900
9.23842	0.00000	5313.29900
9.24227	0.00000	5313.29900
9.24611	0.00000	5310.51400
9.24995	0.00000	5310.51400
9.25380	0.00000	5310.51400
9.25764	0.00000	5310.51400
9.26149	0.00000	5310.51400
9.26532	0.00000	5310.51400
9.26917	0.00000	5310.51400
9.27300	0.00000	5315.27900
9.27684	0.00000	5315.27900
9.28068	0.00000	5315.27900
9.28452	0.00000	5315.27900
9.28836	0.00000	5315.27900
9.29219	0.00000	5315.27900
9.29603	0.00000	5322.88900
9.29986	0.00000	5322.88900
9.30370	0.00000	5322.88900
9.30754	0.00000	5322.88900
9.31137	0.00000	5322.88900
9.31521	0.00000	5322.88900
9.31905	0.00000	5322.88900
9.32289	0.00000	5315.27900
9.32674	0.00000	5315.27900
9.33058	0.00000	5315.27900
9.33442	0.00000	5315.27900
9.33826	0.00000	5315.27900
9.34209	0.00000	5315.27900
9.34593	0.00000	5315.27900
9.34977	0.00000	5312.50000
9.35361	0.00000	5312.50000
9.35744	0.00000	5312.50000
9.36127	0.00000	5312.50000
9.36511	0.00000	5312.50000
9.36895	0.00000	5312.50000
9.37279	0.00000	5316.87900
9.37663	0.00000	5316.87900
9.38048	0.00000	5316.87900
9.38432	0.00000	5316.87900
9.38816	0.00000	5316.87900
9.39200	0.00000	5316.87900
9.39583	0.00000	5316.87900
9.39968	0.00000	5325.94900
9.40352	0.00000	5325.94900
9.40736	0.00000	5325.94900
9.41119	0.00000	5325.94900
9.41503	0.00000	5325.94900
9.41887	0.00000	5325.94900
9.42271	0.00000	5325.94900
9.42653	0.00000	5325.57000
9.43038	0.00000	5325.57000
9.43421	0.00000	5325.57000
9.43805	0.00000	5325.57000
9.44189	0.00000	5325.57000
9.44575	0.00000	5325.57000
9.44959	0.00000	5326.05200
9.45343	0.00000	5326.05200
9.45727	0.00000	5326.05200
9.46111	0.00000	5326.05200
9.46494	0.00000	5326.05200
9.46878	0.00000	5326.05200
9.47263	0.00000	5326.05200
9.47647	0.00000	5323.57600
9.48031	0.00000	5323.57600
9.48416	0.00000	5323.57600
9.48800	0.00000	5323.57600
9.49183	0.00000	5323.57600
9.49567	0.00000	5323.57600
9.49950	0.00000	5323.57600
9.50335	0.00000	5323.57600
9.50719	0.00000	5323.57600
9.51103	0.00000	5323.57600
9.51487	0.00000	5323.57600
9.51871	0.00000	5323.57600
9.52255	0.00000	5323.57600
9.52639	0.00000	5338.37600
9.53023	0.00000	5338.37600
9.53407	0.00000	5338.37600
9.53791	0.00000	5338.37600
9.54175	0.00000	5338.37600
9.54558	0.00000	5338.37600
9.54942	0.00000	5338.37600
9.55326	0.00000	5325.94900
9.55709	0.00000	5325.94900
9.56093	0.00000	5325.94900
9.56476	0.00000	5325.94900
9.56860	0.00000	5325.94900
9.57244	0.00000	5325.94900
9.57628	0.00000	5325.94900
9.58011	0.00000	5323.57600
9.58395	0.00000	5323.57600
9.58779	0.00000	5323.57600
9.59163	0.00000	5323.57600
9.59546	0.00000	5323.57600
9.59930	0.00000	5323.57600
9.60311	0.00000	5328.44400
9.60696	0.00000	5328.44400
9.61080	0.00000	5328.44400
9.61463	0.00000	5328.44400
9.61846	0.00000	5328.44400
9.62229	0.00000	5328.44400
9.62613	0.00000	5328.44400
9.62998	0.00000	5322.81000
9.63382	0.00000	5322.81000
9.63765	0.00000	5322.81000
9.64149	0.00000	5322.81000
9.64534	0.00000	5322.81000
9.64917	0.00000	5322.81000
9.65302	0.00000	5322.81000
9.65685	0.00000	5318.05200
9.66070	0.00000	5318.05200
9.66454	0.00000	5318.05200
9.66838	0.00000	5318.05200
9.67222	0.00000	5318.05200
9.67606	0.00000	5318.05200
9.67990	0.00000	5318.48600
9.68376	0.00000	5318.48600
9.68761	0.00000	5318.48600
9.69145	0.00000	5318.48600
9.69530	0.00000	5318.48600
9.69911	0.00000	5318.48600
9.70295	0.00000	5318.48600
9.70679	0.00000	5318.44100
9.71062	0.00000	5318.44100
9.71446	0.00000	5318.44100
9.71830	0.00000	5318.44100
9.72215	0.00000	5318.44100
9.72598	0.00000	5318.44100
9.72983	0.00000	5318.44100
9.73367	0.00000	5318.44100
9.73751	0.00000	5318.44100
9.74135	0.00000	5318.44100
9.74520	0.00000	5318.44100
9.74903	0.00000	5318.44100
9.75287	0.00000	5318.44100
9.75669	0.00000	5316.48600
9.76058	0.00000	5316.48600
9.76444	0.00000	5316.48600
9.76827	0.00000	5316.48600
9.77211	0.00000	5316.48600
9.77595	0.00000	5316.48600
9.77980	0.00000	5316.48600
9.78364	0.00000	5318.05200
9.78750	0.00000	5318.05200
9.79133	0.00000	5318.05200
9.79518	0.00000	5318.05200
9.79902	0.00000	5318.05200
9.80286	0.00000	5318.05200
9.80670	0.00000	5318.05200
9.81054	0.00000	5321.20200
9.81438	0.00000	5321.20200
9.81822	0.00000	5321.20200
9.82206	0.00000	5321.20200
9.82590	0.00000	5321.20200
9.82973	0.00000	5321.20200
9.83357	0.00000	5326.43300
9.83741	0.00000	5326.43300
9.84125	0.00000	5326.43300
9.84509	0.00000	5326.43300
9.84893	0.00000	5326.43300
9.85276	0.00000	5326.43300
9.85660	0.00000	5326.43300
9.86043	0.00000	5325.57000
9.86427	0.00000	5325.57000
9.86811	0.00000	5325.57000
9.87195	0.00000	5325.57000
9.87579	0.00000	5325.57000
9.87963	0.00000	5325.57000
9.88347	0.00000	5325.57000
9.88732	0.00000	5316.06400
9.89111	0.00000	5316.06400
9.89495	0.00000	5316.06400
9.89879	0.00000	5316.06400
9.90263	0.00000	5316.06400
9.90648	0.00000	5316.06400
9.91033	0.00000	5325.67000
9.91417	0.00000	5325.67000
9.91802	0.00000	5325.67000
9.92185	0.00000	5325.67000
9.92568	0.00000	5325.67000
9.92953	0.00000	5325.67000
9.93337	0.00000	5325.67000
9.93720	0.00000	5323.19400
9.94104	0.00000	5323.19400
9.94489	0.00000	5323.19400
9.94872	0.00000	5323.19400
9.95256	0.00000	5323.19400
9.95641	0.00000	5323.19400
9.96024	0.00000	5323.19400
9.96407	0.00000	5322.81000
9.96792	0.00000	5322.81000
9.97177	0.00000	5322.81000
9.97561	0.00000	5322.81000
9.97944	0.00000	5322.81000
9.98328	0.00000	5322.81000
9.98711	0.00000	5328.06500
9.99098	0.00000	5328.06500
9.99482	0.00000	5328.06500
9.99865	0.00000	5328.06500
