Time (s)   Thrust (N)   RPM
0.00029	0.00000	5725.14200
0.00419	0.00000	5725.14200
0.00805	0.00000	5725.14200
0.01190	0.00000	5725.14200
0.01575	0.00000	5725.14200
0.01960	0.00000	5698.87000
0.02350	0.00000	5698.87000
0.02735	0.00000	5698.87000
0.03119	0.00000	5698.87000
0.03504	0.00000	5698.87000
0.03887	0.00000	5698.87000
0.04272	0.00000	5698.87000
0.04656	0.00000	5393.54700
0.05040	0.00000	5393.54700
0.05422	0.00000	5393.54700
0.05805	0.00000	5393.54700
0.06188	0.00000	5393.54700
0.06571	0.00000	5393.54700
0.06953	0.00000	5073.67800
0.07335	0.00000	5073.67800
0.07717	0.00000	5073.67800
0.08101	0.00000	5073.67800
0.08485	0.00000	5073.67800
0.08869	0.00000	5073.67800
0.09252	0.00000	4846.90200
0.09639	0.00000	4846.90200
0.10022	0.00000	4846.90200
0.10404	0.00000	4846.90200
0.10787	0.00000	4846.90200
0.11169	0.00000	4846.90200
0.11552	0.00000	4657.98300
0.11935	0.00000	4657.98300
0.12317	0.00000	4657.98300
0.12699	0.00000	4657.98300
0.13082	0.00000	4657.98300
0.13464	0.00000	4657.98300
0.13846	0.00000	4488.90200
0.14229	0.00000	4488.90200
0.14611	0.00000	4488.90200
0.14994	0.00000	4488.90200
0.15376	0.00000	4488.90200
0.15758	0.00000	4357.94500
0.16141	0.00000	4357.94500
0.16524	0.00000	4357.94500
0.16904	0.00000	4357.94500
0.17288	0.00000	4357.94500
0.17670	0.00000	4246.50500
0.18056	0.00000	4246.50500
0.18440	0.00000	4246.50500
0.18824	0.00000	4246.50500
0.19208	0.00000	4246.50500
0.19592	0.00000	4142.58800
0.19975	0.00000	4142.58800
0.20357	0.00000	4142.58800
0.20740	0.00000	4142.58800
0.21123	0.00000	4142.58800
0.21505	0.00000	4066.22600
0.21888	0.00000	4066.22600
0.22271	0.00000	4066.22600
0.22653	0.00000	4066.22600
0.23036	0.00000	4066.22600
0.23418	0.00000	3996.11400
0.23800	0.00000	3996.11400
0.24183	0.00000	3996.11400
0.24567	0.00000	3996.11400
0.24956	0.00000	3996.11400
0.25342	0.00000	3937.17100
0.25725	0.00000	3937.17100
0.26105	0.00000	3937.17100
0.26487	0.00000	3937.17100
0.26870	0.00000	3937.17100
0.27253	0.00000	3885.82100
0.27638	0.00000	3885.82100
0.28021	0.00000	3885.82100
0.28404	0.00000	3885.82100
0.28788	0.00000	3885.82100
0.29170	0.00000	3833.55600
0.29553	0.00000	3833.55600
0.29936	0.00000	3833.55600
0.30318	0.00000	3833.55600
0.30701	0.00000	3790.68700
0.31084	0.00000	3790.68700
0.31467	0.00000	3790.68700
0.31849	0.00000	3790.68700
0.32232	0.00000	3790.68700
0.32615	0.00000	3756.78100
0.32997	0.00000	3756.78100
0.33380	0.00000	3756.78100
0.33763	0.00000	3756.78100
0.34145	0.00000	3756.78100
0.34529	0.00000	3712.50000
0.34912	0.00000	3712.50000
0.35295	0.00000	3712.50000
0.35678	0.00000	3712.50000
0.36061	0.00000	3698.20400
0.36443	0.00000	3698.20400
0.36826	0.00000	3698.20400
0.37209	0.00000	3698.20400
0.37592	0.00000	3698.20400
0.37974	0.00000	3663.51500
0.38358	0.00000	3663.51500
0.38741	0.00000	3663.51500
0.39123	0.00000	3663.51500
0.39506	0.00000	3663.51500
0.39889	0.00000	3646.21700
0.40271	0.00000	3646.21700
0.40654	0.00000	3646.21700
0.41037	0.00000	3646.21700
0.41420	0.00000	3624.30100
0.41804	0.00000	3624.30100
0.42186	0.00000	3624.30100
0.42570	0.00000	3624.30100
0.42953	0.00000	3624.30100
0.43335	0.00000	3617.81000
0.43719	0.00000	3617.81000
0.44102	0.00000	3617.81000
0.44485	0.00000	3617.81000
0.44867	0.00000	3617.81000
0.45250	0.00000	3596.08200
0.45633	0.00000	3596.08200
0.46016	0.00000	3596.08200
0.46398	0.00000	3596.08200
0.46782	0.00000	3588.18000
0.47165	0.00000	3588.18000
0.47549	0.00000	3588.18000
0.47931	0.00000	3588.18000
0.48314	0.00000	3588.18000
0.48697	0.00000	3571.26100
0.49080	0.00000	3571.26100
0.49464	0.00000	3571.26100
0.49846	0.00000	3571.26100
0.50230	0.00000	3566.38400
0.50613	0.00000	3566.38400
0.50996	0.00000	3566.38400
0.51378	0.00000	3566.38400
0.51761	0.00000	3566.38400
0.52144	0.00000	3560.39300
0.52527	0.00000	3560.39300
0.52910	0.00000	3560.39300
0.53293	0.00000	3560.39300
0.53675	0.00000	3555.05600
0.54059	0.00000	3555.05600
0.54443	0.00000	3555.05600
0.54825	0.00000	3555.05600
0.55208	0.00000	3555.05600
0.55590	0.00000	3545.58200
0.55972	0.00000	3545.58200
0.56356	0.00000	3545.58200
0.56739	0.00000	3545.58200
0.57122	0.00000	3533.79000
0.57504	0.00000	3533.79000
0.57887	0.00000	3533.79000
0.58269	0.00000	3533.79000
0.58653	0.00000	3533.79000
0.59035	0.00000	3533.38000
0.59418	0.00000	3533.38000
0.59801	0.00000	3533.38000
0.60184	0.00000	3533.38000
0.60567	0.00000	3533.38000
0.60949	0.00000	3533.79000
0.61331	0.00000	3533.79000
0.61714	0.00000	3533.79000
0.62097	0.00000	3533.79000
0.62478	0.00000	3522.29600
0.62861	0.00000	3522.29600
0.63244	0.00000	3522.29600
0.63627	0.00000	3522.29600
0.64010	0.00000	3522.29600
0.64393	0.00000	3519.61200
0.64775	0.00000	3519.61200
0.65157	0.00000	3519.61200
0.65539	0.00000	3519.61200
0.65922	0.00000	3504.03900
0.66304	0.00000	3504.03900
0.66688	0.00000	3504.03900
0.67071	0.00000	3504.03900
0.67453	0.00000	3504.03900
0.67836	0.00000	3505.89600
0.68218	0.00000	3505.89600
0.68601	0.00000	3505.89600
0.68983	0.00000	3505.89600
0.69366	0.00000	3504.03900
0.69748	0.00000	3504.03900
0.70130	0.00000	3504.03900
0.70512	0.00000	3504.03900
0.70894	0.00000	3504.03900
0.71277	0.00000	3504.97100
0.71659	0.00000	3504.97100
0.72042	0.00000	3504.97100
0.72424	0.00000	3504.97100
0.72807	0.00000	3507.14300
0.73189	0.00000	3507.14300
0.73572	0.00000	3507.14300
0.73955	0.00000	3507.14300
0.74337	0.00000	3507.14300
0.74721	0.00000	3498.34600
0.75103	0.00000	3498.34600
0.75485	0.00000	3498.34600
0.75867	0.00000	3498.34600
0.76249	0.00000	3492.85700
0.76632	0.00000	3492.85700
0.77015	0.00000	3492.85700
0.77401	0.00000	3492.85700
0.77784	0.00000	3492.85700
0.78168	0.00000	3494.31800
0.78550	0.00000	3494.31800
0.78932	0.00000	3494.31800
0.79315	0.00000	3494.31800
0.79698	0.00000	3492.36600
0.80080	0.00000	3492.36600
0.80463	0.00000	3492.36600
0.80844	0.00000	3492.36600
0.81227	0.00000	3492.36600
0.81610	0.00000	3487.21500
0.81993	0.00000	3487.21500
0.82376	0.00000	3487.21500
0.82759	0.00000	3487.21500
0.83141	0.00000	3492.36600
0.83523	0.00000	3492.36600
0.83906	0.00000	3492.36600
0.84289	0.00000	3492.36600
0.84672	0.00000	3492.36600
0.85054	0.00000	3490.27500
0.85438	0.00000	3490.27500
0.85820	0.00000	3490.27500
0.86203	0.00000	3490.27500
0.86585	0.00000	3492.36600
0.86968	0.00000	3492.36600
0.87350	0.00000	3492.36600
0.87733	0.00000	3492.36600
0.88115	0.00000	3492.36600
0.88498	0.00000	3490.27500
0.88880	0.00000	3490.27500
0.89263	0.00000	3490.27500
0.89646	0.00000	3490.27500
0.90029	0.00000	3488.78800
0.90413	0.00000	3488.78800
0.90796	0.00000	3488.78800
0.91180	0.00000	3488.78800
0.91562	0.00000	3488.78800
0.91945	0.00000	3490.27500
0.92327	0.00000	3490.27500
0.92710	0.00000	3490.27500
0.93092	0.00000	3490.27500
0.93474	0.00000	3484.70300
0.93856	0.00000	3484.70300
0.94239	0.00000	3484.70300
0.94622	0.00000	3484.70300
0.95005	0.00000	3484.70300
0.95387	0.00000	3487.21500
0.95769	0.00000	3487.21500
0.96152	0.00000	3487.21500
0.96534	0.00000	3487.21500
0.96916	0.00000	3485.21000
0.97300	0.00000	3485.21000
0.97683	0.00000	3485.21000
0.98067	0.00000	3485.21000
0.98449	0.00000	3485.21000
0.98831	0.00000	3483.66400
0.99213	0.00000	3483.66400
0.99596	0.00000	3483.66400
0.99979	0.00000	3483.66400
1.00361	0.00000	3495.45800
1.00743	0.00000	3495.45800
1.01125	0.00000	3495.45800
1.01507	0.00000	3495.45800
1.01890	0.00000	3495.45800
1.02273	0.00000	3490.27500
1.02655	0.00000	3490.27500
1.03037	0.00000	3490.27500
1.03420	0.00000	3490.27500
1.03803	0.00000	3488.78800
1.04186	0.00000	3488.78800
1.04569	0.00000	3488.78800
1.04950	0.00000	3488.78800
1.05332	0.00000	3488.78800
1.05715	0.00000	3480.11300
1.06097	0.00000	3480.11300
1.06479	0.00000	3480.11300
1.06861	0.00000	3480.11300
1.07244	0.00000	3485.21000
1.07627	0.00000	3485.21000
1.08009	0.00000	3485.21000
1.08392	0.00000	3485.21000
1.08774	0.00000	3485.21000
1.09157	0.00000	3490.27500
1.09539	0.00000	3490.27500
1.09922	0.00000	3490.27500
1.10304	0.00000	3490.27500
1.10687	0.00000	3481.63100
1.11069	0.00000	3481.63100
1.11452	0.00000	3481.63100
1.11836	0.00000	3481.63100
1.12218	0.00000	3481.63100
1.12601	0.00000	3483.15900
1.12983	0.00000	3483.15900
1.13366	0.00000	3483.15900
1.13748	0.00000	3483.15900
1.14130	0.00000	3485.21000
1.14514	0.00000	3485.21000
1.14897	0.00000	3485.21000
1.15279	0.00000	3485.21000
1.15661	0.00000	3485.21000
1.16044	0.00000	3490.27500
1.16426	0.00000	3490.27500
1.16809	0.00000	3490.27500
1.17191	0.00000	3490.27500
1.17574	0.00000	3485.21000
1.17957	0.00000	3485.21000
1.18339	0.00000	3485.21000
1.18722	0.00000	3485.21000
1.19105	0.00000	3485.21000
1.19487	0.00000	3486.21600
1.19869	0.00000	3486.21600
1.20253	0.00000	3486.21600
1.20635	0.00000	3486.21600
1.21018	0.00000	3488.28800
1.21401	0.00000	3488.28800
1.21783	0.00000	3488.28800
1.22166	0.00000	3488.28800
1.22549	0.00000	3488.28800
1.22932	0.00000	3486.21600
1.23314	0.00000	3486.21600
1.23697	0.00000	3486.21600
1.24079	0.00000	3486.21600
1.24462	0.00000	3488.28800
1.24846	0.00000	3488.28800
1.25229	0.00000	3488.28800
1.25612	0.00000	3488.28800
1.25994	0.00000	3488.28800
1.26376	0.00000	3486.21600
1.26758	0.00000	3486.21600
1.27141	0.00000	3486.21600
1.27527	0.00000	3486.21600
1.27911	0.00000	3485.21000
1.28295	0.00000	3485.21000
1.28679	0.00000	3485.21000
1.29062	0.00000	3485.21000
1.29445	0.00000	3485.21000
1.29827	0.00000	3486.21600
1.30209	0.00000	3486.21600
1.30592	0.00000	3486.21600
1.30974	0.00000	3486.21600
1.31356	0.00000	3484.70300
1.31738	0.00000	3484.70300
1.32121	0.00000	3484.70300
1.32503	0.00000	3484.70300
1.32886	0.00000	3484.70300
1.33269	0.00000	3482.65200
1.33651	0.00000	3482.65200
1.34033	0.00000	3482.65200
1.34417	0.00000	3482.65200
1.34798	0.00000	3487.78700
1.35181	0.00000	3487.78700
1.35563	0.00000	3487.78700
1.35946	0.00000	3487.78700
1.36328	0.00000	3487.78700
1.36711	0.00000	3475.52300
1.37093	0.00000	3475.52300
1.37477	0.00000	3475.52300
1.37859	0.00000	3475.52300
1.38242	0.00000	3485.21000
1.38625	0.00000	3485.21000
1.39007	0.00000	3485.21000
1.39390	0.00000	3485.21000
1.39773	0.00000	3485.21000
1.40155	0.00000	3489.28500
1.40538	0.00000	3489.28500
1.40920	0.00000	3489.28500
1.41302	0.00000	3489.28500
1.41685	0.00000	3484.70300
1.42068	0.00000	3484.70300
1.42450	0.00000	3484.70300
1.42833	0.00000	3484.70300
1.43215	0.00000	3484.70300
1.43597	0.00000	3485.21000
1.43980	0.00000	3485.21000
1.44362	0.00000	3485.21000
1.44745	0.00000	3485.21000
1.45128	0.00000	3491.87300
1.45512	0.00000	3491.87300
1.45894	0.00000	3491.87300
1.46277	0.00000	3491.87300
1.46659	0.00000	3491.87300
1.47041	0.00000	3489.28500
1.47424	0.00000	3489.28500
1.47806	0.00000	3489.28500
1.48189	0.00000	3489.28500
1.48571	0.00000	3481.63100
1.48953	0.00000	3481.63100
1.49335	0.00000	3481.63100
1.49718	0.00000	3481.63100
1.50100	0.00000	3481.63100
1.50483	0.00000	3485.71400
1.50866	0.00000	3485.71400
1.51249	0.00000	3485.71400
1.51632	0.00000	3485.71400
1.52014	0.00000	3485.21000
1.52396	0.00000	3485.21000
1.52778	0.00000	3485.21000
1.53160	0.00000	3485.21000
1.53542	0.00000	3485.21000
1.53924	0.00000	3488.78800
1.54306	0.00000	3488.78800
1.54689	0.00000	3488.78800
1.55070	0.00000	3488.78800
1.55453	0.00000	3491.87300
1.55835	0.00000	3491.87300
1.56217	0.00000	3491.87300
1.56599	0.00000	3491.87300
1.56982	0.00000	3491.87300
1.57364	0.00000	3485.71400
1.57747	0.00000	3485.71400
1.58129	0.00000	3485.71400
1.58511	0.00000	3485.71400
1.58894	0.00000	3484.70300
1.59276	0.00000	3484.70300
1.59658	0.00000	3484.70300
1.60040	0.00000	3484.70300
1.60423	0.00000	3484.70300
1.60805	0.00000	3478.57100
1.61187	0.00000	3478.57100
1.61569	0.00000	3478.57100
1.61951	0.00000	3478.57100
1.62333	0.00000	3488.28800
1.62716	0.00000	3488.28800
1.63098	0.00000	3488.28800
1.63480	0.00000	3488.28800
1.63862	0.00000	3488.28800
1.64244	0.00000	3482.14200
1.64628	0.00000	3482.14200
1.65011	0.00000	3482.14200
1.65394	0.00000	3482.14200
1.65776	0.00000	3485.21000
1.66158	0.00000	3485.21000
1.66540	0.00000	3485.21000
1.66923	0.00000	3485.21000
1.67304	0.00000	3485.21000
1.67687	0.00000	3488.28800
1.68069	0.00000	3488.28800
1.68452	0.00000	3488.28800
1.68835	0.00000	3488.28800
1.69217	0.00000	3481.11800
1.69600	0.00000	3481.11800
1.69982	0.00000	3481.11800
1.70364	0.00000	3481.11800
1.70747	0.00000	3481.11800
1.71129	0.00000	3485.21000
1.71511	0.00000	3485.21000
1.71894	0.00000	3485.21000
1.72276	0.00000	3485.21000
1.72658	0.00000	3481.63100
1.73040	0.00000	3481.63100
1.73422	0.00000	3481.63100
1.73805	0.00000	3481.63100
1.74187	0.00000	3481.63100
1.74570	0.00000	3488.78800
1.74952	0.00000	3488.78800
1.75335	0.00000	3488.78800
1.75717	0.00000	3488.78800
1.76100	0.00000	3481.63100
1.76482	0.00000	3481.63100
1.76864	0.00000	3481.63100
1.77247	0.00000	3481.63100
1.77632	0.00000	3481.63100
1.78016	0.00000	3485.21000
1.78398	0.00000	3485.21000
1.78780	0.00000	3485.21000
1.79164	0.00000	3485.21000
1.79547	0.00000	3481.63100
1.79929	0.00000	3481.63100
1.80311	0.00000	3481.63100
1.80694	0.00000	3481.63100
1.81076	0.00000	3481.63100
1.81459	0.00000	3488.78800
1.81842	0.00000	3488.78800
1.82224	0.00000	3488.78800
1.82606	0.00000	3488.78800
1.82989	0.00000	3478.05300
1.83370	0.00000	3478.05300
1.83753	0.00000	3478.05300
1.84136	0.00000	3478.05300
1.84518	0.00000	3478.05300
1.84900	0.00000	3488.78800
1.85284	0.00000	3488.78800
1.85666	0.00000	3488.78800
1.86048	0.00000	3488.78800
1.86431	0.00000	3477.53300
1.86813	0.00000	3477.53300
1.87195	0.00000	3477.53300
1.87578	0.00000	3477.53300
1.87960	0.00000	3477.53300
1.88343	0.00000	3481.63100
1.88726	0.00000	3481.63100
1.89109	0.00000	3481.63100
1.89491	0.00000	3481.63100
1.89874	0.00000	3481.63100
1.90256	0.00000	3481.63100
1.90638	0.00000	3481.63100
1.91021	0.00000	3481.63100
1.91404	0.00000	3481.63100
1.91785	0.00000	3481.11800
1.92167	0.00000	3481.11800
1.92550	0.00000	3481.11800
1.92932	0.00000	3481.11800
1.93314	0.00000	3477.53300
1.93696	0.00000	3477.53300
1.94078	0.00000	3477.53300
1.94460	0.00000	3477.53300
1.94843	0.00000	3477.53300
1.95225	0.00000	3481.63100
1.95608	0.00000	3481.63100
1.95991	0.00000	3481.63100
1.96373	0.00000	3481.63100
1.96756	0.00000	3484.70300
1.97138	0.00000	3484.70300
1.97520	0.00000	3484.70300
1.97902	0.00000	3484.70300
1.98284	0.00000	3484.70300
1.98667	0.00000	3481.63100
1.99049	0.00000	3481.63100
1.99431	0.00000	3481.63100
1.99814	0.00000	3481.63100
2.00196	0.00000	3488.28800
2.00577	0.00000	3488.28800
2.00960	0.00000	3488.28800
2.01342	0.00000	3488.28800
2.01725	0.00000	3488.28800
2.02104	0.00000	3488.78800
2.02487	0.00000	3488.78800
2.02870	0.00000	3488.78800
2.03252	0.00000	3488.78800
2.03634	0.00000	3481.63100
2.04016	0.00000	3481.63100
2.04400	0.00000	3481.63100
2.04782	0.00000	3481.63100
2.05166	0.00000	3481.63100
2.05548	0.00000	3488.28800
2.05930	0.00000	3488.28800
2.06313	0.00000	3488.28800
2.06695	0.00000	3488.28800
2.07078	0.00000	3481.11800
2.07460	0.00000	3481.11800
2.07842	0.00000	3481.11800
2.08225	0.00000	3481.11800
2.08608	0.00000	3481.11800
2.08991	0.00000	3481.63100
2.09373	0.00000	3481.63100
2.09756	0.00000	3481.63100
2.10138	0.00000	3481.63100
2.10520	0.00000	3481.63100
2.10903	0.00000	3481.63100
2.11286	0.00000	3481.63100
2.11668	0.00000	3481.63100
2.12050	0.00000	3481.63100
2.12433	0.00000	3470.89700
2.12815	0.00000	3470.89700
2.13197	0.00000	3470.89700
2.13580	0.00000	3470.89700
2.13962	0.00000	3484.70300
2.14344	0.00000	3484.70300
2.14726	0.00000	3484.70300
2.15109	0.00000	3484.70300
2.15491	0.00000	3484.70300
2.15873	0.00000	3481.63100
2.16255	0.00000	3481.63100
2.16638	0.00000	3481.63100
2.17021	0.00000	3481.63100
2.17403	0.00000	3481.63100
2.17785	0.00000	3481.63100
2.18168	0.00000	3481.63100
2.18553	0.00000	3481.63100
2.18938	0.00000	3481.63100
2.19321	0.00000	3481.63100
2.19704	0.00000	3481.63100
2.20086	0.00000	3481.63100
2.20469	0.00000	3481.63100
2.20852	0.00000	3484.70300
2.21236	0.00000	3484.70300
2.21618	0.00000	3484.70300
2.22000	0.00000	3484.70300
2.22382	0.00000	3484.70300
2.22765	0.00000	3478.05300
2.23148	0.00000	3478.05300
2.23530	0.00000	3478.05300
2.23914	0.00000	3478.05300
2.24299	0.00000	3481.11800
2.24684	0.00000	3481.11800
2.25067	0.00000	3481.11800
2.25449	0.00000	3481.11800
2.25831	0.00000	3481.11800
2.26214	0.00000	3482.14200
2.26596	0.00000	3482.14200
2.26980	0.00000	3482.14200
2.27362	0.00000	3482.14200
2.27748	0.00000	3481.11800
2.28131	0.00000	3481.11800
2.28513	0.00000	3481.11800
2.28896	0.00000	3481.11800
2.29278	0.00000	3481.11800
2.29661	0.00000	3482.14200
2.30043	0.00000	3482.14200
2.30425	0.00000	3482.14200
2.30808	0.00000	3482.14200
2.31190	0.00000	3481.11800
2.31573	0.00000	3481.11800
2.31955	0.00000	3481.11800
2.32337	0.00000	3481.11800
2.32720	0.00000	3481.11800
2.33102	0.00000	3478.57100
2.33484	0.00000	3478.57100
2.33867	0.00000	3478.57100
2.34249	0.00000	3478.57100
2.34632	0.00000	3481.63100
2.35013	0.00000	3481.63100
2.35396	0.00000	3481.63100
2.35778	0.00000	3481.63100
2.36160	0.00000	3481.63100
2.36542	0.00000	3485.21000
2.36924	0.00000	3485.21000
2.37304	0.00000	3485.21000
2.37688	0.00000	3485.21000
2.38071	0.00000	3478.05300
2.38453	0.00000	3478.05300
2.38836	0.00000	3478.05300
2.39219	0.00000	3478.05300
2.39602	0.00000	3478.05300
2.39984	0.00000	3482.14200
2.40366	0.00000	3482.14200
2.40748	0.00000	3482.14200
2.41130	0.00000	3482.14200
2.41512	0.00000	3478.05300
2.41895	0.00000	3478.05300
2.42278	0.00000	3478.05300
2.42661	0.00000	3478.05300
2.43044	0.00000	3478.05300
2.43427	0.00000	3482.14200
2.43809	0.00000	3482.14200
2.44192	0.00000	3482.14200
2.44573	0.00000	3482.14200
2.44956	0.00000	3481.63100
2.45338	0.00000	3481.63100
2.45721	0.00000	3481.63100
2.46103	0.00000	3481.63100
2.46486	0.00000	3481.63100
2.46868	0.00000	3474.47500
2.47252	0.00000	3474.47500
2.47633	0.00000	3474.47500
2.48016	0.00000	3474.47500
2.48398	0.00000	3488.28800
2.48781	0.00000	3488.28800
2.49163	0.00000	3488.28800
2.49546	0.00000	3488.28800
2.49928	0.00000	3488.28800
2.50310	0.00000	3482.14200
2.50693	0.00000	3482.14200
2.51076	0.00000	3482.14200
2.51458	0.00000	3482.14200
2.51841	0.00000	3484.70300
2.52224	0.00000	3484.70300
2.52606	0.00000	3484.70300
2.52989	0.00000	3484.70300
2.53371	0.00000	3484.70300
2.53753	0.00000	3485.71400
2.54135	0.00000	3485.71400
2.54517	0.00000	3485.71400
2.54900	0.00000	3485.71400
2.55283	0.00000	3491.87300
2.55664	0.00000	3491.87300
2.56046	0.00000	3491.87300
2.56428	0.00000	3491.87300
2.56811	0.00000	3491.87300
2.57193	0.00000	3485.21000
2.57576	0.00000	3485.21000
2.57958	0.00000	3485.21000
2.58340	0.00000	3485.21000
2.58723	0.00000	3484.70300
2.59105	0.00000	3484.70300
2.59488	0.00000	3484.70300
2.59870	0.00000	3484.70300
2.60253	0.00000	3484.70300
2.60636	0.00000	3481.63100
2.61019	0.00000	3481.63100
2.61401	0.00000	3481.63100
2.61784	0.00000	3481.63100
2.62166	0.00000	3481.63100
2.62548	0.00000	3481.63100
2.62931	0.00000	3481.63100
2.63312	0.00000	3481.63100
2.63695	0.00000	3481.63100
2.64078	0.00000	3485.71400
2.64460	0.00000	3485.71400
2.64843	0.00000	3485.71400
2.65226	0.00000	3485.71400
2.65608	0.00000	3485.21000
2.65991	0.00000	3485.21000
2.66373	0.00000	3485.21000
2.66755	0.00000	3485.21000
2.67137	0.00000	3485.21000
2.67519	0.00000	3492.36600
2.67902	0.00000	3492.36600
2.68283	0.00000	3492.36600
2.68666	0.00000	3492.36600
2.69048	0.00000	3485.21000
2.69430	0.00000	3485.21000
2.69813	0.00000	3485.21000
2.70196	0.00000	3485.21000
2.70579	0.00000	3485.21000
2.70962	0.00000	3492.36600
2.71344	0.00000	3492.36600
2.71727	0.00000	3492.36600
2.72109	0.00000	3492.36600
2.72491	0.00000	3488.78800
2.72873	0.00000	3488.78800
2.73256	0.00000	3488.78800
2.73637	0.00000	3488.78800
2.74020	0.00000	3488.78800
2.74403	0.00000	3489.28500
2.74786	0.00000	3489.28500
2.75169	0.00000	3489.28500
2.75551	0.00000	3489.28500
2.75934	0.00000	3488.78800
2.76316	0.00000	3488.78800
2.76699	0.00000	3488.78800
2.77081	0.00000	3488.78800
2.77464	0.00000	3488.78800
2.77851	0.00000	3488.78800
2.78235	0.00000	3488.78800
2.78618	0.00000	3488.78800
2.79000	0.00000	3488.78800
2.79382	0.00000	3488.78800
2.79764	0.00000	3488.78800
2.80148	0.00000	3488.78800
2.80530	0.00000	3488.78800
2.80912	0.00000	3488.78800
2.81295	0.00000	3492.85700
2.81678	0.00000	3492.85700
2.82061	0.00000	3492.85700
2.82443	0.00000	3492.85700
2.82825	0.00000	3492.36600
2.83207	0.00000	3492.36600
2.83589	0.00000	3492.36600
2.83971	0.00000	3492.36600
2.84354	0.00000	3492.36600
2.84736	0.00000	3492.36600
2.85118	0.00000	3492.36600
2.85501	0.00000	3492.36600
2.85884	0.00000	3492.36600
2.86266	0.00000	3492.36600
2.86648	0.00000	3492.85700
2.87030	0.00000	3492.85700
2.87413	0.00000	3492.85700
2.87796	0.00000	3492.85700
2.88179	0.00000	3492.36600
2.88562	0.00000	3492.36600
2.88944	0.00000	3492.36600
2.89327	0.00000	3492.36600
2.89704	0.00000	3492.36600
2.90086	0.00000	3493.34600
2.90469	0.00000	3493.34600
2.90851	0.00000	3493.34600
2.91234	0.00000	3493.34600
2.91616	0.00000	3485.21000
2.91999	0.00000	3485.21000
2.92381	0.00000	3485.21000
2.92763	0.00000	3485.21000
2.93145	0.00000	3485.21000
2.93527	0.00000	3490.27500
2.93909	0.00000	3490.27500
2.94291	0.00000	3490.27500
2.94674	0.00000	3490.27500
2.95056	0.00000	3492.36600
2.95438	0.00000	3492.36600
2.95820	0.00000	3492.36600
2.96202	0.00000	3492.36600
2.96585	0.00000	3492.36600
2.96967	0.00000	3490.27500
2.97349	0.00000	3490.27500
2.97732	0.00000	3490.27500
2.98114	0.00000	3490.27500
2.98497	0.00000	3495.94400
2.98879	0.00000	3495.94400
2.99261	0.00000	3495.94400
2.99644	0.00000	3495.94400
3.00027	0.00000	3495.94400
3.00409	0.00000	3483.66400
3.00791	0.00000	3483.66400
3.01173	0.00000	3483.66400
3.01556	0.00000	3483.66400
3.01939	0.00000	3495.94400
3.02321	0.00000	3495.94400
3.02703	0.00000	3495.94400
3.03085	0.00000	3495.94400
3.03468	0.00000	3495.94400
3.03850	0.00000	3490.76600
3.04232	0.00000	3490.76600
3.04615	0.00000	3490.76600
3.04998	0.00000	3490.76600
3.05381	0.00000	3492.36600
3.05763	0.00000	3492.36600
3.06145	0.00000	3492.36600
3.06528	0.00000	3492.36600
3.06910	0.00000	3492.36600
3.07293	0.00000	3494.31800
3.07674	0.00000	3494.31800
3.08057	0.00000	3494.31800
3.08439	0.00000	3494.31800
3.08821	0.00000	3485.21000
3.09204	0.00000	3485.21000
3.09587	0.00000	3485.21000
3.09970	0.00000	3485.21000
3.10352	0.00000	3485.21000
3.10736	0.00000	3483.15900
3.11118	0.00000	3483.15900
3.11500	0.00000	3483.15900
3.11883	0.00000	3483.15900
3.12266	0.00000	3492.36600
3.12648	0.00000	3492.36600
3.13030	0.00000	3492.36600
3.13413	0.00000	3492.36600
3.13795	0.00000	3492.36600
3.14177	0.00000	3493.83300
3.14560	0.00000	3493.83300
3.14943	0.00000	3493.83300
3.15326	0.00000	3493.83300
3.15704	0.00000	3489.28500
3.16087	0.00000	3489.28500
3.16470	0.00000	3489.28500
3.16853	0.00000	3489.28500
3.17235	0.00000	3489.28500
3.17617	0.00000	3494.31800
3.17999	0.00000	3494.31800
3.18382	0.00000	3494.31800
3.18763	0.00000	3494.31800
3.19146	0.00000	3495.94400
3.19529	0.00000	3495.94400
3.19912	0.00000	3495.94400
3.20294	0.00000	3495.94400
3.20676	0.00000	3495.94400
3.21059	0.00000	3494.31800
3.21441	0.00000	3494.31800
3.21824	0.00000	3494.31800
3.22206	0.00000	3494.31800
3.22588	0.00000	3492.36600
3.22971	0.00000	3492.36600
3.23353	0.00000	3492.36600
3.23735	0.00000	3492.36600
3.24117	0.00000	3492.36600
3.24499	0.00000	3494.31800
3.24882	0.00000	3494.31800
3.25264	0.00000	3494.31800
3.25647	0.00000	3494.31800
3.26029	0.00000	3499.52200
3.26413	0.00000	3499.52200
3.26796	0.00000	3499.52200
3.27178	0.00000	3499.52200
3.27561	0.00000	3499.52200
3.27946	0.00000	3494.31800
3.28330	0.00000	3494.31800
3.28713	0.00000	3494.31800
3.29095	0.00000	3494.31800
3.29478	0.00000	3492.85700
3.29862	0.00000	3492.85700
3.30244	0.00000	3492.85700
3.30627	0.00000	3492.85700
3.31010	0.00000	3492.85700
3.31392	0.00000	3494.31800
3.31776	0.00000	3494.31800
3.32158	0.00000	3494.31800
3.32541	0.00000	3494.31800
3.32922	0.00000	3488.78800
3.33304	0.00000	3488.78800
3.33686	0.00000	3488.78800
3.34068	0.00000	3488.78800
3.34451	0.00000	3488.78800
3.34833	0.00000	3487.21500
3.35216	0.00000	3487.21500
3.35598	0.00000	3487.21500
3.35980	0.00000	3487.21500
3.36363	0.00000	3503.10100
3.36748	0.00000	3503.10100
3.37130	0.00000	3503.10100
3.37512	0.00000	3503.10100
3.37894	0.00000	3503.10100
3.38277	0.00000	3490.76600
3.38659	0.00000	3490.76600
3.39043	0.00000	3490.76600
3.39425	0.00000	3490.76600
3.39808	0.00000	3492.85700
3.40193	0.00000	3492.85700
3.40575	0.00000	3492.85700
3.40958	0.00000	3492.85700
3.41340	0.00000	3492.85700
3.41722	0.00000	3497.86900
3.42104	0.00000	3497.86900
3.42486	0.00000	3497.86900
3.42868	0.00000	3497.86900
3.43251	0.00000	3492.36600
3.43633	0.00000	3492.36600
3.44017	0.00000	3492.36600
3.44399	0.00000	3492.36600
3.44782	0.00000	3492.36600
3.45165	0.00000	3486.71700
3.45547	0.00000	3486.71700
3.45929	0.00000	3486.71700
3.46312	0.00000	3486.71700
3.46693	0.00000	3488.78800
3.47076	0.00000	3488.78800
3.47459	0.00000	3488.78800
3.47841	0.00000	3488.78800
3.48224	0.00000	3488.78800
3.48607	0.00000	3497.39000
3.48990	0.00000	3497.39000
3.49373	0.00000	3497.39000
3.49755	0.00000	3497.39000
3.50138	0.00000	3492.85700
3.50521	0.00000	3492.85700
3.50904	0.00000	3492.85700
3.51287	0.00000	3492.85700
3.51669	0.00000	3492.85700
3.52052	0.00000	3496.91000
3.52434	0.00000	3496.91000
3.52817	0.00000	3496.91000
3.53199	0.00000	3496.91000
3.53581	0.00000	3492.85700
3.53963	0.00000	3492.85700
3.54346	0.00000	3492.85700
3.54728	0.00000	3492.85700
3.55111	0.00000	3492.85700
3.55493	0.00000	3500.00000
3.55876	0.00000	3500.00000
3.56259	0.00000	3500.00000
3.56642	0.00000	3500.00000
3.57024	0.00000	3499.52200
3.57406	0.00000	3499.52200
3.57789	0.00000	3499.52200
3.58171	0.00000	3499.52200
3.58553	0.00000	3499.52200
3.58936	0.00000	3496.42800
3.59318	0.00000	3496.42800
3.59701	0.00000	3496.42800
3.60084	0.00000	3496.42800
3.60466	0.00000	3489.28500
3.60847	0.00000	3489.28500
3.61230	0.00000	3489.28500
3.61612	0.00000	3489.28500
3.61994	0.00000	3489.28500
3.62377	0.00000	3496.42800
3.62759	0.00000	3496.42800
3.63142	0.00000	3496.42800
3.63524	0.00000	3496.42800
3.63906	0.00000	3496.42800
3.64288	0.00000	3493.34600
3.64671	0.00000	3493.34600
3.65053	0.00000	3493.34600
3.65436	0.00000	3493.34600
3.65818	0.00000	3495.94400
3.66200	0.00000	3495.94400
3.66583	0.00000	3495.94400
3.66966	0.00000	3495.94400
3.67349	0.00000	3495.94400
3.67731	0.00000	3493.34600
3.68113	0.00000	3493.34600
3.68495	0.00000	3493.34600
3.68877	0.00000	3493.34600
3.69260	0.00000	3499.52200
3.69642	0.00000	3499.52200
3.70024	0.00000	3499.52200
3.70408	0.00000	3499.52200
3.70790	0.00000	3499.52200
3.71172	0.00000	3497.39000
3.71554	0.00000	3497.39000
3.71936	0.00000	3497.39000
3.72318	0.00000	3497.39000
3.72701	0.00000	3496.42800
3.73083	0.00000	3496.42800
3.73466	0.00000	3496.42800
3.73849	0.00000	3496.42800
3.74233	0.00000	3496.42800
3.74615	0.00000	3490.76600
3.74997	0.00000	3490.76600
3.75379	0.00000	3490.76600
3.75762	0.00000	3490.76600
3.76145	0.00000	3488.78800
3.76528	0.00000	3488.78800
3.76910	0.00000	3488.78800
3.77293	0.00000	3488.78800
3.77677	0.00000	3488.78800
3.78060	0.00000	3490.27500
3.78443	0.00000	3490.27500
3.78826	0.00000	3490.27500
3.79209	0.00000	3490.27500
3.79592	0.00000	3499.52200
3.79974	0.00000	3499.52200
3.80357	0.00000	3499.52200
3.80740	0.00000	3499.52200
3.81122	0.00000	3499.52200
3.81504	0.00000	3497.39000
3.81886	0.00000	3497.39000
3.82269	0.00000	3497.39000
3.82651	0.00000	3497.39000
3.83036	0.00000	3495.94400
3.83418	0.00000	3495.94400
3.83800	0.00000	3495.94400
3.84183	0.00000	3495.94400
3.84565	0.00000	3495.94400
3.84947	0.00000	3494.31800
3.85330	0.00000	3494.31800
3.85713	0.00000	3494.31800
3.86096	0.00000	3494.31800
3.86479	0.00000	3492.85700
3.86860	0.00000	3492.85700
3.87243	0.00000	3492.85700
3.87625	0.00000	3492.85700
3.88007	0.00000	3492.85700
3.88390	0.00000	3497.86900
3.88773	0.00000	3497.86900
3.89156	0.00000	3497.86900
3.89538	0.00000	3497.86900
3.89920	0.00000	3495.94400
3.90302	0.00000	3495.94400
3.90685	0.00000	3495.94400
3.91067	0.00000	3495.94400
3.91449	0.00000	3495.94400
3.91832	0.00000	3490.76600
3.92214	0.00000	3490.76600
3.92596	0.00000	3490.76600
3.92979	0.00000	3490.76600
3.93362	0.00000	3495.94400
3.93744	0.00000	3495.94400
3.94126	0.00000	3495.94400
3.94504	0.00000	3495.94400
3.94887	0.00000	3495.94400
3.95269	0.00000	3494.31800
3.95651	0.00000	3494.31800
3.96033	0.00000	3494.31800
3.96415	0.00000	3494.31800
3.96798	0.00000	3492.85700
3.97180	0.00000	3492.85700
3.97563	0.00000	3492.85700
3.97946	0.00000	3492.85700
3.98327	0.00000	3492.85700
3.98711	0.00000	3494.31800
3.99093	0.00000	3494.31800
3.99474	0.00000	3494.31800
3.99857	0.00000	3494.31800
4.00239	0.00000	3485.21000
4.00621	0.00000	3485.21000
4.01004	0.00000	3485.21000
4.01386	0.00000	3485.21000
4.01769	0.00000	3485.21000
4.02151	0.00000	3490.27500
4.02533	0.00000	3490.27500
4.02916	0.00000	3490.27500
4.03299	0.00000	3490.27500
4.03682	0.00000	3492.36600
4.04064	0.00000	3492.36600
4.04447	0.00000	3492.36600
4.04830	0.00000	3492.36600
4.05213	0.00000	3492.36600
4.05595	0.00000	3490.76600
4.05978	0.00000	3490.76600
4.06360	0.00000	3490.76600
4.06743	0.00000	3490.76600
4.07125	0.00000	3495.94400
4.07510	0.00000	3495.94400
4.07892	0.00000	3495.94400
4.08275	0.00000	3495.94400
4.08657	0.00000	3495.94400
4.09040	0.00000	3494.31800
4.09422	0.00000	3494.31800
4.09804	0.00000	3494.31800
4.10186	0.00000	3494.31800
4.10568	0.00000	3492.36600
4.10952	0.00000	3492.36600
4.11334	0.00000	3492.36600
4.11716	0.00000	3492.36600
4.12098	0.00000	3492.36600
4.12480	0.00000	3487.21500
4.12862	0.00000	3487.21500
4.13246	0.00000	3487.21500
4.13628	0.00000	3487.21500
4.14010	0.00000	3499.52200
4.14394	0.00000	3499.52200
4.14776	0.00000	3499.52200
4.15160	0.00000	3499.52200
4.15542	0.00000	3499.52200
4.15925	0.00000	3493.83300
4.16307	0.00000	3493.83300
4.16690	0.00000	3493.83300
4.17074	0.00000	3493.83300
4.17458	0.00000	3489.28500
4.17841	0.00000	3489.28500
4.18224	0.00000	3489.28500
4.18606	0.00000	3489.28500
4.18989	0.00000	3489.28500
4.19372	0.00000	3490.76600
4.19754	0.00000	3490.76600
4.20137	0.00000	3490.76600
4.20518	0.00000	3490.76600
4.20901	0.00000	3495.94400
4.21285	0.00000	3495.94400
4.21667	0.00000	3495.94400
4.22049	0.00000	3495.94400
4.22431	0.00000	3495.94400
4.22813	0.00000	3486.71700
4.23195	0.00000	3486.71700
4.23577	0.00000	3486.71700
4.23959	0.00000	3486.71700
4.24342	0.00000	3492.36600
4.24724	0.00000	3492.36600
4.25106	0.00000	3492.36600
4.25490	0.00000	3492.36600
4.25872	0.00000	3492.36600
4.26254	0.00000	3486.21600
4.26636	0.00000	3486.21600
4.27019	0.00000	3486.21600
4.27402	0.00000	3486.21600
4.27788	0.00000	3488.78800
4.28171	0.00000	3488.78800
4.28553	0.00000	3488.78800
4.28936	0.00000	3488.78800
4.29318	0.00000	3488.78800
4.29700	0.00000	3493.34600
4.30083	0.00000	3493.34600
4.30465	0.00000	3493.34600
4.30848	0.00000	3493.34600
4.31231	0.00000	3485.71400
4.31613	0.00000	3485.71400
4.31996	0.00000	3485.71400
4.32378	0.00000	3485.71400
4.32761	0.00000	3485.71400
4.33142	0.00000	3492.85700
4.33524	0.00000	3492.85700
4.33907	0.00000	3492.85700
4.34289	0.00000	3492.85700
4.34672	0.00000	3492.36600
4.35055	0.00000	3492.36600
4.35437	0.00000	3492.36600
4.35819	0.00000	3492.36600
4.36202	0.00000	3492.36600
4.36584	0.00000	3489.28500
4.36965	0.00000	3489.28500
4.37348	0.00000	3489.28500
4.37730	0.00000	3489.28500
4.38112	0.00000	3485.21000
4.38494	0.00000	3485.21000
4.38877	0.00000	3485.21000
4.39259	0.00000	3485.21000
4.39641	0.00000	3485.21000
4.40024	0.00000	3492.36600
4.40406	0.00000	3492.36600
4.40788	0.00000	3492.36600
4.41170	0.00000	3492.36600
4.41553	0.00000	3495.94400
4.41935	0.00000	3495.94400
4.42317	0.00000	3495.94400
4.42700	0.00000	3495.94400
4.43082	0.00000	3495.94400
4.43464	0.00000	3492.36600
4.43846	0.00000	3492.36600
4.44229	0.00000	3492.36600
4.44611	0.00000	3492.36600
4.44993	0.00000	3492.36600
4.45375	0.00000	3485.71400
4.45757	0.00000	3485.71400
4.46139	0.00000	3485.71400
4.46522	0.00000	3485.71400
4.46904	0.00000	3488.78800
4.47286	0.00000	3488.78800
4.47668	0.00000	3488.78800
4.48050	0.00000	3488.78800
4.48432	0.00000	3488.78800
4.48814	0.00000	3485.21000
4.49196	0.00000	3485.21000
4.49578	0.00000	3485.21000
4.49961	0.00000	3485.21000
4.50343	0.00000	3482.14200
4.50725	0.00000	3482.14200
4.51108	0.00000	3482.14200
4.51490	0.00000	3482.14200
4.51873	0.00000	3482.14200
4.52256	0.00000	3482.65200
4.52639	0.00000	3482.65200
4.53022	0.00000	3482.65200
4.53404	0.00000	3482.65200
4.53787	0.00000	3488.28800
4.54170	0.00000	3488.28800
4.54553	0.00000	3488.28800
4.54936	0.00000	3488.28800
4.55319	0.00000	3488.28800
4.55700	0.00000	3482.65200
4.56084	0.00000	3482.65200
4.56466	0.00000	3482.65200
4.56849	0.00000	3482.65200
4.57232	0.00000	3485.21000
4.57614	0.00000	3485.21000
4.57997	0.00000	3485.21000
4.58379	0.00000	3485.21000
4.58761	0.00000	3485.21000
4.59143	0.00000	3486.21600
4.59526	0.00000	3486.21600
4.59908	0.00000	3486.21600
4.60291	0.00000	3486.21600
4.60673	0.00000	3488.28800
4.61055	0.00000	3488.28800
4.61438	0.00000	3488.28800
4.61821	0.00000	3488.28800
4.62203	0.00000	3488.28800
4.62586	0.00000	3482.65200
4.62968	0.00000	3482.65200
4.63350	0.00000	3482.65200
4.63732	0.00000	3482.65200
4.64115	0.00000	3478.05300
4.64498	0.00000	3478.05300
4.64880	0.00000	3478.05300
4.65262	0.00000	3478.05300
4.65645	0.00000	3478.05300
4.66027	0.00000	3482.65200
4.66409	0.00000	3482.65200
4.66791	0.00000	3482.65200
4.67173	0.00000	3482.65200
4.67555	0.00000	3484.70300
4.67938	0.00000	3484.70300
4.68321	0.00000	3484.70300
4.68703	0.00000	3484.70300
4.69086	0.00000	3484.70300
4.69468	0.00000	3479.60100
4.69850	0.00000	3479.60100
4.70234	0.00000	3479.60100
4.70616	0.00000	3479.60100
4.70999	0.00000	3481.63100
4.71381	0.00000	3481.63100
4.71763	0.00000	3481.63100
4.72146	0.00000	3481.63100
4.72527	0.00000	3481.63100
4.72909	0.00000	3486.21600
4.73291	0.00000	3486.21600
4.73674	0.00000	3486.21600
4.74056	0.00000	3486.21600
4.74438	0.00000	3481.11800
4.74820	0.00000	3481.11800
4.75202	0.00000	3481.11800
4.75584	0.00000	3481.11800
4.75966	0.00000	3481.11800
4.76349	0.00000	3485.71400
4.76731	0.00000	3485.71400
4.77114	0.00000	3485.71400
4.77497	0.00000	3485.71400
4.77881	0.00000	3488.28800
4.78264	0.00000	3488.28800
4.78647	0.00000	3488.28800
4.79030	0.00000	3488.28800
4.79413	0.00000	3488.28800
4.79795	0.00000	3486.21600
4.80177	0.00000	3486.21600
4.80560	0.00000	3486.21600
4.80942	0.00000	3486.21600
4.81325	0.00000	3484.70300
4.81704	0.00000	3484.70300
4.82086	0.00000	3484.70300
4.82468	0.00000	3484.70300
4.82851	0.00000	3484.70300
4.83234	0.00000	3479.60100
4.83616	0.00000	3479.60100
4.83999	0.00000	3479.60100
4.84381	0.00000	3479.60100
4.84764	0.00000	3484.70300
4.85146	0.00000	3484.70300
4.85528	0.00000	3484.70300
4.85910	0.00000	3484.70300
4.86292	0.00000	3484.70300
4.86674	0.00000	3483.15900
4.87057	0.00000	3483.15900
4.87439	0.00000	3483.15900
4.87821	0.00000	3483.15900
4.88203	0.00000	3481.11800
4.88586	0.00000	3481.11800
4.88968	0.00000	3481.11800
4.89350	0.00000	3481.11800
4.89732	0.00000	3481.11800
4.90115	0.00000	3476.04300
4.90498	0.00000	3476.04300
4.90880	0.00000	3476.04300
4.91262	0.00000	3476.04300
4.91644	0.00000	3481.11800
4.92027	0.00000	3481.11800
4.92410	0.00000	3481.11800
4.92793	0.00000	3481.11800
4.93175	0.00000	3481.11800
4.93558	0.00000	3476.04300
4.93940	0.00000	3476.04300
4.94322	0.00000	3476.04300
4.94705	0.00000	3476.04300
4.95087	0.00000	3484.70300
4.95469	0.00000	3484.70300
4.95852	0.00000	3484.70300
4.96235	0.00000	3484.70300
4.96617	0.00000	3484.70300
4.97000	0.00000	3486.21600
4.97382	0.00000	3486.21600
4.97764	0.00000	3486.21600
4.98146	0.00000	3486.21600
4.98529	0.00000	3477.01100
4.98911	0.00000	3477.01100
4.99293	0.00000	3477.01100
4.99675	0.00000	3477.01100
5.00107	0.00000	3484.19500
5.00494	0.00000	3484.19500
5.00877	0.00000	3484.19500
5.01261	0.00000	3484.19500
5.01645	0.00000	3484.19500
5.02028	0.00000	3558.96200
5.02412	0.00000	3558.96200
5.02796	0.00000	3558.96200
5.03184	0.00000	3558.96200
5.03569	0.00000	3558.96200
5.03953	0.00000	3948.91300
5.04336	0.00000	3948.91300
5.04719	0.00000	3948.91300
5.05103	0.00000	3948.91300
5.05486	0.00000	3948.91300
5.05869	0.00000	4231.87800
5.06251	0.00000	4231.87800
5.06634	0.00000	4231.87800
5.07018	0.00000	4231.87800
5.07401	0.00000	4231.87800
5.07785	0.00000	4231.87800
5.08168	0.00000	4497.09300
5.08551	0.00000	4497.09300
5.08933	0.00000	4497.09300
5.09317	0.00000	4497.09300
5.09700	0.00000	4497.09300
5.10084	0.00000	4738.73700
5.10469	0.00000	4738.73700
5.10852	0.00000	4738.73700
5.11238	0.00000	4738.73700
5.11623	0.00000	4738.73700
5.12006	0.00000	4738.73700
5.12390	0.00000	4979.07900
5.12772	0.00000	4979.07900
5.13155	0.00000	4979.07900
5.13539	0.00000	4979.07900
5.13923	0.00000	4979.07900
5.14307	0.00000	4979.07900
5.14691	0.00000	4979.07900
5.15074	0.00000	5189.64400
5.15459	0.00000	5189.64400
5.15843	0.00000	5189.64400
5.16227	0.00000	5189.64400
5.16611	0.00000	5189.64400
5.16994	0.00000	5189.64400
5.17378	0.00000	5189.64400
5.17761	0.00000	5381.55400
5.18145	0.00000	5381.55400
5.18531	0.00000	5381.55400
5.18914	0.00000	5381.55400
5.19299	0.00000	5381.55400
5.19683	0.00000	5381.55400
5.20067	0.00000	5381.55400
5.20450	0.00000	5553.40100
5.20835	0.00000	5553.40100
5.21218	0.00000	5553.40100
5.21602	0.00000	5553.40100
5.21986	0.00000	5553.40100
5.22372	0.00000	5553.40100
5.22756	0.00000	5553.40100
5.23141	0.00000	5670.36300
5.23528	0.00000	5670.36300
5.23912	0.00000	5670.36300
5.24296	0.00000	5670.36300
5.24681	0.00000	5670.36300
5.25065	0.00000	5670.36300
5.25450	0.00000	5670.36300
5.25835	0.00000	5670.36300
5.26220	0.00000	5750.98000
5.26604	0.00000	5750.98000
5.26990	0.00000	5750.98000
5.27374	0.00000	5750.98000
5.27763	0.00000	5750.98000
5.28148	0.00000	5750.98000
5.28533	0.00000	5750.98000
5.28917	0.00000	5797.91600
5.29304	0.00000	5797.91600
5.29689	0.00000	5797.91600
5.30074	0.00000	5797.91600
5.30457	0.00000	5797.91600
5.30842	0.00000	5797.91600
5.31226	0.00000	5797.91600
5.31610	0.00000	5797.91600
5.31994	0.00000	5828.53600
5.32379	0.00000	5828.53600
5.32762	0.00000	5828.53600
5.33146	0.00000	5828.53600
5.33530	0.00000	5828.53600
5.33913	0.00000	5828.53600
5.34297	0.00000	5828.53600
5.34680	0.00000	5828.53600
5.35064	0.00000	5839.69500
5.35448	0.00000	5839.69500
5.35832	0.00000	5839.69500
5.36216	0.00000	5839.69500
5.36600	0.00000	5839.69500
5.36984	0.00000	5839.69500
5.37368	0.00000	5839.69500
5.37753	0.00000	5850.65600
5.38136	0.00000	5850.65600
5.38519	0.00000	5850.65600
5.38903	0.00000	5850.65600
5.39289	0.00000	5850.65600
5.39672	0.00000	5850.65600
5.40056	0.00000	5850.65600
5.40441	0.00000	5850.65600
5.40825	0.00000	5854.00700
5.41208	0.00000	5854.00700
5.41592	0.00000	5854.00700
5.41976	0.00000	5854.00700
5.42360	0.00000	5854.00700
5.42744	0.00000	5854.00700
5.43128	0.00000	5854.00700
5.43512	0.00000	5854.00700
5.43896	0.00000	5855.29900
5.44280	0.00000	5855.29900
5.44664	0.00000	5855.29900
5.45048	0.00000	5855.29900
5.45432	0.00000	5855.29900
5.45816	0.00000	5855.29900
5.46199	0.00000	5855.29900
5.46583	0.00000	5855.29900
5.46967	0.00000	5855.29900
5.47350	0.00000	5855.29900
5.47734	0.00000	5855.29900
5.48118	0.00000	5855.29900
5.48502	0.00000	5855.29900
5.48885	0.00000	5855.29900
5.49269	0.00000	5855.29900
5.49654	0.00000	5855.29900
5.50036	0.00000	5852.21100
5.50421	0.00000	5852.21100
5.50804	0.00000	5852.21100
5.51189	0.00000	5852.21100
5.51574	0.00000	5852.21100
5.51958	0.00000	5852.21100
5.52341	0.00000	5852.21100
5.52726	0.00000	5860.65600
5.53110	0.00000	5860.65600
5.53494	0.00000	5860.65600
5.53877	0.00000	5860.65600
5.54262	0.00000	5860.65600
5.54646	0.00000	5860.65600
5.55030	0.00000	5860.65600
5.55413	0.00000	5860.65600
5.55799	0.00000	5858.86600
5.56182	0.00000	5858.86600
5.56566	0.00000	5858.86600
5.56950	0.00000	5858.86600
5.57333	0.00000	5858.86600
5.57717	0.00000	5858.86600
5.58102	0.00000	5858.86600
5.58486	0.00000	5858.86600
5.58870	0.00000	5856.58200
5.59253	0.00000	5856.58200
5.59638	0.00000	5856.58200
5.60022	0.00000	5856.58200
5.60406	0.00000	5856.58200
5.60791	0.00000	5856.58200
5.61175	0.00000	5856.58200
5.61559	0.00000	5856.58200
5.61944	0.00000	5858.61300
5.62329	0.00000	5858.61300
5.62713	0.00000	5858.61300
5.63097	0.00000	5858.61300
5.63481	0.00000	5858.61300
5.63867	0.00000	5858.61300
5.64250	0.00000	5858.61300
5.64635	0.00000	5864.23100
5.65019	0.00000	5864.23100
5.65403	0.00000	5864.23100
5.65787	0.00000	5864.23100
5.66172	0.00000	5864.23100
5.66556	0.00000	5864.23100
5.66940	0.00000	5864.23100
5.67323	0.00000	5864.23100
5.67704	0.00000	5865.75000
5.68088	0.00000	5865.75000
5.68471	0.00000	5865.75000
5.68855	0.00000	5865.75000
5.69240	0.00000	5865.75000
5.69624	0.00000	5865.75000
5.70008	0.00000	5865.75000
5.70392	0.00000	5865.75000
5.70776	0.00000	5862.67600
5.71159	0.00000	5862.67600
5.71542	0.00000	5862.67600
5.71927	0.00000	5862.67600
5.72310	0.00000	5862.67600
5.72695	0.00000	5862.67600
5.73079	0.00000	5862.67600
5.73462	0.00000	5862.67600
5.73846	0.00000	5858.61300
5.74231	0.00000	5858.61300
5.74614	0.00000	5858.61300
5.74999	0.00000	5858.61300
5.75382	0.00000	5858.61300
5.75768	0.00000	5858.61300
5.76151	0.00000	5858.61300
5.76535	0.00000	5858.61300
5.76918	0.00000	5856.58200
5.77303	0.00000	5856.58200
5.77688	0.00000	5856.58200
5.78074	0.00000	5856.58200
5.78458	0.00000	5856.58200
5.78842	0.00000	5856.58200
5.79227	0.00000	5856.58200
5.79611	0.00000	5858.09700
5.79997	0.00000	5858.09700
5.80380	0.00000	5858.09700
5.80763	0.00000	5858.09700
5.81148	0.00000	5858.09700
5.81531	0.00000	5858.09700
5.81916	0.00000	5858.09700
5.82300	0.00000	5858.09700
5.82685	0.00000	5854.79900
5.83068	0.00000	5854.79900
5.83453	0.00000	5854.79900
5.83836	0.00000	5854.79900
5.84220	0.00000	5854.79900
5.84604	0.00000	5854.79900
5.84989	0.00000	5854.79900
5.85373	0.00000	5854.79900
5.85756	0.00000	5856.58200
5.86140	0.00000	5856.58200
5.86526	0.00000	5856.58200
5.86904	0.00000	5856.58200
5.87288	0.00000	5856.58200
5.87672	0.00000	5856.58200
5.88057	0.00000	5856.58200
5.88442	0.00000	5856.58200
5.88826	0.00000	5858.61300
5.89211	0.00000	5858.61300
5.89595	0.00000	5858.61300
5.89980	0.00000	5858.61300
5.90365	0.00000	5858.61300
5.90750	0.00000	5858.61300
5.91135	0.00000	5858.61300
5.91519	0.00000	5858.61300
5.91901	0.00000	5865.75000
5.92285	0.00000	5865.75000
5.92670	0.00000	5865.75000
5.93054	0.00000	5865.75000
5.93438	0.00000	5865.75000
5.93823	0.00000	5865.75000
5.94206	0.00000	5865.75000
5.94589	0.00000	5868.32100
5.94975	0.00000	5868.32100
5.95358	0.00000	5868.32100
5.95742	0.00000	5868.32100
5.96126	0.00000	5868.32100
5.96510	0.00000	5868.32100
5.96893	0.00000	5868.32100
5.97277	0.00000	5868.32100
5.97661	0.00000	5858.36000
5.98045	0.00000	5858.36000
5.98429	0.00000	5858.36000
5.98814	0.00000	5858.36000
5.99198	0.00000	5858.36000
5.99582	0.00000	5858.36000
5.99966	0.00000	5858.36000
6.00350	0.00000	5858.36000
6.00734	0.00000	5862.67600
6.01117	0.00000	5862.67600
6.01501	0.00000	5862.67600
6.01886	0.00000	5862.67600
6.02270	0.00000	5862.67600
6.02654	0.00000	5862.67600
6.03038	0.00000	5862.67600
6.03422	0.00000	5862.67600
6.03806	0.00000	5866.73900
6.04189	0.00000	5866.73900
6.04573	0.00000	5866.73900
6.04957	0.00000	5866.73900
6.05341	0.00000	5866.73900
6.05725	0.00000	5866.73900
6.06104	0.00000	5866.73900
6.06490	0.00000	5858.09700
6.06873	0.00000	5858.09700
6.07258	0.00000	5858.09700
6.07641	0.00000	5858.09700
6.08026	0.00000	5858.09700
6.08410	0.00000	5858.09700
6.08795	0.00000	5858.09700
6.09178	0.00000	5858.09700
6.09562	0.00000	5860.14100
6.09947	0.00000	5860.14100
6.10330	0.00000	5860.14100
6.10715	0.00000	5860.14100
6.11099	0.00000	5860.14100
6.11483	0.00000	5860.14100
6.11867	0.00000	5860.14100
6.12251	0.00000	5860.14100
6.12636	0.00000	5853.01300
6.13022	0.00000	5853.01300
6.13405	0.00000	5853.01300
6.13789	0.00000	5853.01300
6.14172	0.00000	5853.01300
6.14556	0.00000	5853.01300
6.14940	0.00000	5853.01300
6.15324	0.00000	5853.01300
6.15704	0.00000	5854.79900
6.16088	0.00000	5854.79900
6.16472	0.00000	5854.79900
6.16856	0.00000	5854.79900
6.17241	0.00000	5854.79900
6.17624	0.00000	5854.79900
6.18009	0.00000	5854.79900
6.18395	0.00000	5854.79900
6.18781	0.00000	5859.12000
6.19167	0.00000	5859.12000
6.19551	0.00000	5859.12000
6.19936	0.00000	5859.12000
6.20321	0.00000	5859.12000
6.20704	0.00000	5859.12000
6.21089	0.00000	5859.12000
6.21474	0.00000	5860.14100
6.21859	0.00000	5860.14100
6.22245	0.00000	5860.14100
6.22630	0.00000	5860.14100
6.23014	0.00000	5860.14100
6.23398	0.00000	5860.14100
6.23785	0.00000	5860.14100
6.24171	0.00000	5860.14100
6.24556	0.00000	5860.90000
6.24940	0.00000	5860.90000
6.25324	0.00000	5860.90000
6.25705	0.00000	5860.90000
6.26089	0.00000	5860.90000
6.26473	0.00000	5860.90000
6.26859	0.00000	5860.90000
6.27243	0.00000	5860.90000
6.27627	0.00000	5857.08500
6.28013	0.00000	5857.08500
6.28397	0.00000	5857.08500
6.28781	0.00000	5857.08500
6.29165	0.00000	5857.08500
6.29548	0.00000	5857.08500
6.29932	0.00000	5857.08500
6.30315	0.00000	5857.08500
6.30699	0.00000	5854.55100
6.31082	0.00000	5854.55100
6.31466	0.00000	5854.55100
6.31849	0.00000	5854.55100
6.32233	0.00000	5854.55100
6.32616	0.00000	5854.55100
6.33001	0.00000	5854.55100
6.33385	0.00000	5860.14100
6.33767	0.00000	5860.14100
6.34151	0.00000	5860.14100
6.34534	0.00000	5860.14100
6.34917	0.00000	5860.14100
6.35302	0.00000	5860.14100
6.35686	0.00000	5860.14100
6.36070	0.00000	5860.14100
6.36454	0.00000	5859.63000
6.36839	0.00000	5859.63000
6.37223	0.00000	5859.63000
6.37607	0.00000	5859.63000
6.37991	0.00000	5859.63000
6.38375	0.00000	5859.63000
6.38759	0.00000	5859.63000
6.39143	0.00000	5859.63000
6.39527	0.00000	5852.27200
6.39912	0.00000	5852.27200
6.40295	0.00000	5852.27200
6.40680	0.00000	5852.27200
6.41064	0.00000	5852.27200
6.41449	0.00000	5852.27200
6.41833	0.00000	5852.27200
6.42218	0.00000	5852.27200
6.42602	0.00000	5860.64400
6.42987	0.00000	5860.64400
6.43372	0.00000	5860.64400
6.43757	0.00000	5860.64400
6.44141	0.00000	5860.64400
6.44526	0.00000	5860.64400
6.44910	0.00000	5860.64400
6.45294	0.00000	5860.64400
6.45678	0.00000	5862.93400
6.46062	0.00000	5862.93400
6.46447	0.00000	5862.93400
6.46832	0.00000	5862.93400
6.47216	0.00000	5862.93400
6.47601	0.00000	5862.93400
6.47985	0.00000	5862.93400
6.48369	0.00000	5858.35100
6.48754	0.00000	5858.35100
6.49138	0.00000	5858.35100
6.49521	0.00000	5858.35100
6.49905	0.00000	5858.35100
6.50288	0.00000	5858.35100
6.50671	0.00000	5858.35100
6.51055	0.00000	5858.35100
6.51439	0.00000	5854.79900
6.51822	0.00000	5854.79900
6.52206	0.00000	5854.79900
6.52590	0.00000	5854.79900
6.52974	0.00000	5854.79900
6.53357	0.00000	5854.79900
6.53741	0.00000	5854.79900
6.54125	0.00000	5854.79900
6.54504	0.00000	5856.83300
6.54888	0.00000	5856.83300
6.55271	0.00000	5856.83300
6.55655	0.00000	5856.83300
6.56039	0.00000	5856.83300
6.56423	0.00000	5856.83300
6.56806	0.00000	5856.83300
6.57190	0.00000	5856.83300
6.57575	0.00000	5855.04900
6.57959	0.00000	5855.04900
6.58342	0.00000	5855.04900
6.58726	0.00000	5855.04900
6.59109	0.00000	5855.04900
6.59492	0.00000	5855.04900
6.59876	0.00000	5855.04900
6.60260	0.00000	5855.04900
6.60644	0.00000	5855.55000
6.61028	0.00000	5855.55000
6.61411	0.00000	5855.55000
6.61795	0.00000	5855.55000
6.62178	0.00000	5855.55000
6.62562	0.00000	5855.55000
6.62946	0.00000	5855.55000
6.63330	0.00000	5862.18600
6.63714	0.00000	5862.18600
6.64098	0.00000	5862.18600
6.64481	0.00000	5862.18600
6.64864	0.00000	5862.18600
6.65247	0.00000	5862.18600
6.65631	0.00000	5862.18600
6.66014	0.00000	5862.18600
6.66397	0.00000	5854.55100
6.66780	0.00000	5854.55100
6.67163	0.00000	5854.55100
6.67546	0.00000	5854.55100
6.67931	0.00000	5854.55100
6.68314	0.00000	5854.55100
6.68698	0.00000	5854.55100
6.69082	0.00000	5854.55100
6.69465	0.00000	5860.64400
6.69849	0.00000	5860.64400
6.70232	0.00000	5860.64400
6.70615	0.00000	5860.64400
6.70999	0.00000	5860.64400
6.71384	0.00000	5860.64400
6.71768	0.00000	5860.64400
6.72152	0.00000	5860.64400
6.72535	0.00000	5866.73900
6.72920	0.00000	5866.73900
6.73303	0.00000	5866.73900
6.73688	0.00000	5866.73900
6.74072	0.00000	5866.73900
6.74456	0.00000	5866.73900
6.74840	0.00000	5866.73900
6.75224	0.00000	5866.73900
6.75606	0.00000	5861.41300
6.75990	0.00000	5861.41300
6.76374	0.00000	5861.41300
6.76758	0.00000	5861.41300
6.77142	0.00000	5861.41300
6.77526	0.00000	5861.41300
6.77913	0.00000	5861.41300
6.78298	0.00000	5866.27600
6.78687	0.00000	5866.27600
6.79072	0.00000	5866.27600
6.79456	0.00000	5866.27600
6.79839	0.00000	5866.27600
6.80223	0.00000	5866.27600
6.80609	0.00000	5866.27600
6.80993	0.00000	5866.27600
6.81379	0.00000	5854.79900
6.81762	0.00000	5854.79900
6.82146	0.00000	5854.79900
6.82531	0.00000	5854.79900
6.82915	0.00000	5854.79900
6.83300	0.00000	5854.79900
6.83686	0.00000	5854.79900
6.84070	0.00000	5854.79900
6.84454	0.00000	5859.12000
6.84840	0.00000	5859.12000
6.85225	0.00000	5859.12000
6.85609	0.00000	5859.12000
6.85992	0.00000	5859.12000
6.86377	0.00000	5859.12000
6.86761	0.00000	5859.12000
6.87145	0.00000	5859.12000
6.87529	0.00000	5855.29900
6.87913	0.00000	5855.29900
6.88296	0.00000	5855.29900
6.88681	0.00000	5855.29900
6.89064	0.00000	5855.29900
6.89448	0.00000	5855.29900
6.89831	0.00000	5855.29900
6.90215	0.00000	5852.45900
6.90600	0.00000	5852.45900
6.90984	0.00000	5852.45900
6.91368	0.00000	5852.45900
6.91751	0.00000	5852.45900
6.92135	0.00000	5852.45900
6.92520	0.00000	5852.45900
6.92904	0.00000	5852.45900
6.93289	0.00000	5863.19200
6.93672	0.00000	5863.19200
6.94056	0.00000	5863.19200
6.94440	0.00000	5863.19200
6.94825	0.00000	5863.19200
6.95208	0.00000	5863.19200
6.95592	0.00000	5863.19200
6.95976	0.00000	5863.19200
6.96359	0.00000	5858.86600
6.96743	0.00000	5858.86600
6.97128	0.00000	5858.86600
6.97511	0.00000	5858.86600
6.97894	0.00000	5858.86600
6.98277	0.00000	5858.86600
6.98660	0.00000	5858.86600
6.99044	0.00000	5858.86600
6.99427	0.00000	5860.90000
6.99810	0.00000	5860.90000
7.00194	0.00000	5860.90000
7.00577	0.00000	5860.90000
7.00960	0.00000	5860.90000
7.01343	0.00000	5860.90000
7.01728	0.00000	5860.90000
7.02112	0.00000	5860.90000
7.02494	0.00000	5853.26000
7.02878	0.00000	5853.26000
7.03263	0.00000	5853.26000
7.03647	0.00000	5853.26000
7.04030	0.00000	5853.26000
7.04413	0.00000	5853.26000
7.04800	0.00000	5853.26000
7.05184	0.00000	5862.18600
7.05569	0.00000	5862.18600
7.05953	0.00000	5862.18600
7.06337	0.00000	5862.18600
7.06721	0.00000	5862.18600
7.07105	0.00000	5862.18600
7.07489	0.00000	5862.18600
7.07873	0.00000	5862.18600
7.08258	0.00000	5860.64400
7.08641	0.00000	5860.64400
7.09025	0.00000	5860.64400
7.09410	0.00000	5860.64400
7.09794	0.00000	5860.64400
7.10178	0.00000	5860.64400
7.10561	0.00000	5860.64400
7.10945	0.00000	5860.64400
7.11329	0.00000	5862.67600
7.11714	0.00000	5862.67600
7.12098	0.00000	5862.67600
7.12483	0.00000	5862.67600
7.12868	0.00000	5862.67600
7.13252	0.00000	5862.67600
7.13635	0.00000	5862.67600
7.14020	0.00000	5862.67600
7.14405	0.00000	5869.03400
7.14789	0.00000	5869.03400
7.15173	0.00000	5869.03400
7.15558	0.00000	5869.03400
7.15942	0.00000	5869.03400
7.16326	0.00000	5869.03400
7.16710	0.00000	5869.03400
7.17094	0.00000	5864.23100
7.17476	0.00000	5864.23100
7.17861	0.00000	5864.23100
7.18245	0.00000	5864.23100
7.18629	0.00000	5864.23100
7.19012	0.00000	5864.23100
7.19397	0.00000	5864.23100
7.19781	0.00000	5864.23100
7.20164	0.00000	5859.63000
7.20547	0.00000	5859.63000
7.20931	0.00000	5859.63000
7.21315	0.00000	5859.63000
7.21699	0.00000	5859.63000
7.22083	0.00000	5859.63000
7.22467	0.00000	5859.63000
7.22850	0.00000	5859.63000
7.23234	0.00000	5858.61300
7.23618	0.00000	5858.61300
7.24002	0.00000	5858.61300
7.24386	0.00000	5858.61300
7.24770	0.00000	5858.61300
7.25154	0.00000	5858.61300
7.25538	0.00000	5858.61300
7.25922	0.00000	5858.61300
7.26305	0.00000	5856.58200
7.26688	0.00000	5856.58200
7.27071	0.00000	5856.58200
7.27454	0.00000	5856.58200
7.27839	0.00000	5856.58200
7.28226	0.00000	5856.58200
7.28611	0.00000	5856.58200
7.28994	0.00000	5856.58200
7.29379	0.00000	5859.12000
7.29763	0.00000	5859.12000
7.30147	0.00000	5859.12000
7.30531	0.00000	5859.12000
7.30914	0.00000	5859.12000
7.31298	0.00000	5859.12000
7.31682	0.00000	5859.12000
7.32066	0.00000	5856.30400
7.32453	0.00000	5856.30400
7.32839	0.00000	5856.30400
7.33222	0.00000	5856.30400
7.33606	0.00000	5856.30400
7.33990	0.00000	5856.30400
7.34374	0.00000	5856.30400
7.34758	0.00000	5856.30400
7.35143	0.00000	5856.83300
7.35527	0.00000	5856.83300
7.35911	0.00000	5856.83300
7.36295	0.00000	5856.83300
7.36680	0.00000	5856.83300
7.37063	0.00000	5856.83300
7.37447	0.00000	5856.83300
7.37831	0.00000	5856.83300
7.38215	0.00000	5853.26000
7.38598	0.00000	5853.26000
7.38982	0.00000	5853.26000
7.39367	0.00000	5853.26000
7.39750	0.00000	5853.26000
7.40134	0.00000	5853.26000
7.40519	0.00000	5853.26000
7.40903	0.00000	5853.26000
7.41288	0.00000	5853.01300
7.41672	0.00000	5853.01300
7.42056	0.00000	5853.01300
7.42440	0.00000	5853.01300
7.42824	0.00000	5853.01300
7.43208	0.00000	5853.01300
7.43591	0.00000	5853.01300
7.43975	0.00000	5848.36000
7.44358	0.00000	5848.36000
7.44743	0.00000	5848.36000
7.45127	0.00000	5848.36000
7.45512	0.00000	5848.36000
7.45895	0.00000	5848.36000
7.46279	0.00000	5848.36000
7.46664	0.00000	5848.36000
7.47048	0.00000	5851.96300
7.47431	0.00000	5851.96300
7.47815	0.00000	5851.96300
7.48199	0.00000	5851.96300
7.48583	0.00000	5851.96300
7.48967	0.00000	5851.96300
7.49351	0.00000	5851.96300
7.49736	0.00000	5851.96300
7.50120	0.00000	5850.97700
7.50503	0.00000	5850.97700
7.50888	0.00000	5850.97700
7.51272	0.00000	5850.97700
7.51656	0.00000	5850.97700
7.52040	0.00000	5850.97700
7.52424	0.00000	5850.97700
7.52810	0.00000	5850.97700
7.53194	0.00000	5852.76500
7.53577	0.00000	5852.76500
7.53961	0.00000	5852.76500
7.54346	0.00000	5852.76500
7.54732	0.00000	5852.76500
7.55116	0.00000	5852.76500
7.55502	0.00000	5852.76500
7.55885	0.00000	5852.76500
7.56268	0.00000	5853.75800
7.56651	0.00000	5853.75800
7.57034	0.00000	5853.75800
7.57419	0.00000	5853.75800
7.57803	0.00000	5853.75800
7.58188	0.00000	5853.75800
7.58573	0.00000	5853.75800
7.58957	0.00000	5858.35100
7.59342	0.00000	5858.35100
7.59727	0.00000	5858.35100
7.60111	0.00000	5858.35100
7.60495	0.00000	5858.35100
7.60879	0.00000	5858.35100
7.61263	0.00000	5858.35100
7.61646	0.00000	5858.35100
7.62030	0.00000	5854.79900
7.62414	0.00000	5854.79900
7.62798	0.00000	5854.79900
7.63182	0.00000	5854.79900
7.63566	0.00000	5854.79900
7.63950	0.00000	5854.79900
7.64334	0.00000	5854.79900
7.64717	0.00000	5854.79900
7.65101	0.00000	5854.79900
7.65487	0.00000	5854.79900
7.65870	0.00000	5854.79900
7.66255	0.00000	5854.79900
7.66638	0.00000	5854.79900
7.67022	0.00000	5854.79900
7.67405	0.00000	5854.79900
7.67789	0.00000	5854.79900
7.68173	0.00000	5854.79900
7.68559	0.00000	5854.79900
7.68942	0.00000	5854.79900
7.69325	0.00000	5854.79900
7.69709	0.00000	5854.79900
7.70095	0.00000	5854.79900
7.70478	0.00000	5854.79900
7.70861	0.00000	5860.39800
7.71247	0.00000	5860.39800
7.71631	0.00000	5860.39800
7.72015	0.00000	5860.39800
7.72399	0.00000	5860.39800
7.72782	0.00000	5860.39800
7.73167	0.00000	5860.39800
7.73550	0.00000	5860.39800
7.73933	0.00000	5855.29900
7.74317	0.00000	5855.29900
7.74700	0.00000	5855.29900
7.75083	0.00000	5855.29900
7.75467	0.00000	5855.29900
7.75850	0.00000	5855.29900
7.76234	0.00000	5855.29900
7.76617	0.00000	5855.29900
7.77001	0.00000	5855.04900
7.77385	0.00000	5855.04900
7.77769	0.00000	5855.04900
7.78156	0.00000	5855.04900
7.78542	0.00000	5855.04900
7.78925	0.00000	5855.04900
7.79310	0.00000	5855.04900
7.79694	0.00000	5855.04900
7.80078	0.00000	5852.76500
7.80462	0.00000	5852.76500
7.80846	0.00000	5852.76500
7.81229	0.00000	5852.76500
7.81615	0.00000	5852.76500
7.81999	0.00000	5852.76500
7.82384	0.00000	5852.76500
7.82768	0.00000	5852.45900
7.83150	0.00000	5852.45900
7.83535	0.00000	5852.45900
7.83920	0.00000	5852.45900
7.84303	0.00000	5852.45900
7.84687	0.00000	5852.45900
7.85071	0.00000	5852.45900
7.85455	0.00000	5852.45900
7.85840	0.00000	5852.45900
7.86224	0.00000	5852.45900
7.86608	0.00000	5852.45900
7.86992	0.00000	5852.45900
7.87376	0.00000	5852.45900
7.87759	0.00000	5852.45900
7.88143	0.00000	5852.45900
7.88528	0.00000	5852.45900
7.88911	0.00000	5850.97700
7.89295	0.00000	5850.97700
7.89679	0.00000	5850.97700
7.90064	0.00000	5850.97700
7.90448	0.00000	5850.97700
7.90832	0.00000	5850.97700
7.91216	0.00000	5850.97700
7.91600	0.00000	5850.97700
7.91984	0.00000	5853.01300
7.92367	0.00000	5853.01300
7.92751	0.00000	5853.01300
7.93137	0.00000	5853.01300
7.93521	0.00000	5853.01300
7.93905	0.00000	5853.01300
7.94289	0.00000	5853.01300
7.94674	0.00000	5853.01300
7.95057	0.00000	5859.37500
7.95441	0.00000	5859.37500
7.95826	0.00000	5859.37500
7.96210	0.00000	5859.37500
7.96594	0.00000	5859.37500
7.96979	0.00000	5859.37500
7.97363	0.00000	5859.37500
7.97748	0.00000	5860.65600
7.98135	0.00000	5860.65600
7.98518	0.00000	5860.65600
7.98903	0.00000	5860.65600
7.99288	0.00000	5860.65600
7.99672	0.00000	5860.65600
8.00056	0.00000	5860.65600
8.00441	0.00000	5860.65600
8.00824	0.00000	5861.15600
8.01208	0.00000	5861.15600
8.01591	0.00000	5861.15600
8.01976	0.00000	5861.15600
8.02360	0.00000	5861.15600
8.02745	0.00000	5861.15600
8.03128	0.00000	5861.15600
8.03512	0.00000	5861.15600
8.03896	0.00000	5856.83300
8.04281	0.00000	5856.83300
8.04664	0.00000	5856.83300
8.05048	0.00000	5856.83300
8.05432	0.00000	5856.83300
8.05815	0.00000	5856.83300
8.06199	0.00000	5856.83300
8.06583	0.00000	5856.83300
8.06967	0.00000	5854.79900
8.07351	0.00000	5854.79900
8.07734	0.00000	5854.79900
8.08117	0.00000	5854.79900
8.08501	0.00000	5854.79900
8.08885	0.00000	5854.79900
8.09269	0.00000	5854.79900
8.09653	0.00000	5860.39800
8.10035	0.00000	5860.39800
8.10419	0.00000	5860.39800
8.10803	0.00000	5860.39800
8.11187	0.00000	5860.39800
8.11570	0.00000	5860.39800
8.11954	0.00000	5860.39800
8.12337	0.00000	5860.39800
8.12721	0.00000	5855.80000
8.13106	0.00000	5855.80000
8.13489	0.00000	5855.80000
8.13873	0.00000	5855.80000
8.14257	0.00000	5855.80000
8.14642	0.00000	5855.80000
8.15026	0.00000	5855.80000
8.15409	0.00000	5855.80000
8.15793	0.00000	5857.08500
8.16176	0.00000	5857.08500
8.16560	0.00000	5857.08500
8.16943	0.00000	5857.08500
8.17327	0.00000	5857.08500
8.17710	0.00000	5857.08500
8.18094	0.00000	5857.08500
8.18476	0.00000	5857.08500
8.18861	0.00000	5861.15600
8.19244	0.00000	5861.15600
8.19628	0.00000	5861.15600
8.20011	0.00000	5861.15600
8.20396	0.00000	5861.15600
8.20779	0.00000	5861.15600
8.21163	0.00000	5861.15600
8.21546	0.00000	5861.15600
8.21930	0.00000	5855.04900
8.22313	0.00000	5855.04900
8.22697	0.00000	5855.04900
8.23081	0.00000	5855.04900
8.23464	0.00000	5855.04900
8.23849	0.00000	5855.04900
8.24232	0.00000	5855.04900
8.24617	0.00000	5858.35100
8.25003	0.00000	5858.35100
8.25387	0.00000	5858.35100
8.25771	0.00000	5858.35100
8.26154	0.00000	5858.35100
8.26537	0.00000	5858.35100
8.26921	0.00000	5858.35100
8.27304	0.00000	5858.35100
8.27689	0.00000	5855.04900
8.28076	0.00000	5855.04900
8.28460	0.00000	5855.04900
8.28844	0.00000	5855.04900
8.29227	0.00000	5855.04900
8.29611	0.00000	5855.04900
8.29993	0.00000	5855.04900
8.30377	0.00000	5855.04900
8.30761	0.00000	5855.04900
8.31145	0.00000	5855.04900
8.31529	0.00000	5855.04900
8.31913	0.00000	5855.04900
8.32298	0.00000	5855.04900
8.32681	0.00000	5855.04900
8.33065	0.00000	5855.04900
8.33449	0.00000	5855.04900
8.33834	0.00000	5853.26000
8.34218	0.00000	5853.26000
8.34602	0.00000	5853.26000
8.34986	0.00000	5853.26000
8.35370	0.00000	5853.26000
8.35754	0.00000	5853.26000
8.36139	0.00000	5853.26000
8.36522	0.00000	5847.03900
8.36904	0.00000	5847.03900
8.37288	0.00000	5847.03900
8.37672	0.00000	5847.03900
8.38057	0.00000	5847.03900
8.38441	0.00000	5847.03900
8.38825	0.00000	5847.03900
8.39210	0.00000	5847.03900
8.39594	0.00000	5850.40900
8.39977	0.00000	5850.40900
8.40361	0.00000	5850.40900
8.40746	0.00000	5850.40900
8.41130	0.00000	5850.40900
8.41515	0.00000	5850.40900
8.41898	0.00000	5850.40900
8.42282	0.00000	5850.40900
8.42666	0.00000	5847.14700
8.43051	0.00000	5847.14700
8.43435	0.00000	5847.14700
8.43818	0.00000	5847.14700
8.44202	0.00000	5847.14700
8.44587	0.00000	5847.14700
8.44971	0.00000	5847.14700
8.45355	0.00000	5847.14700
8.45738	0.00000	5851.22200
8.46123	0.00000	5851.22200
8.46504	0.00000	5851.22200
8.46888	0.00000	5851.22200
8.47272	0.00000	5851.22200
8.47658	0.00000	5851.22200
8.48041	0.00000	5851.22200
8.48427	0.00000	5848.11600
8.48810	0.00000	5848.11600
8.49196	0.00000	5848.11600
8.49579	0.00000	5848.11600
8.49963	0.00000	5848.11600
8.50347	0.00000	5848.11600
8.50730	0.00000	5848.11600
8.51115	0.00000	5848.11600
8.51499	0.00000	5860.65600
8.51884	0.00000	5860.65600
8.52268	0.00000	5860.65600
8.52651	0.00000	5860.65600
8.53035	0.00000	5860.65600
8.53419	0.00000	5860.65600
8.53802	0.00000	5860.65600
8.54187	0.00000	5860.65600
8.54571	0.00000	5857.33700
8.54955	0.00000	5857.33700
8.55340	0.00000	5857.33700
8.55725	0.00000	5857.33700
8.56110	0.00000	5857.33700
8.56494	0.00000	5857.33700
8.56877	0.00000	5857.33700
8.57264	0.00000	5857.33700
8.57650	0.00000	5855.04900
8.58034	0.00000	5855.04900
8.58418	0.00000	5855.04900
8.58802	0.00000	5855.04900
8.59186	0.00000	5855.04900
8.59571	0.00000	5855.04900
8.59958	0.00000	5855.04900
8.60342	0.00000	5855.04900
8.60725	0.00000	5849.67300
8.61110	0.00000	5849.67300
8.61495	0.00000	5849.67300
8.61879	0.00000	5849.67300
8.62263	0.00000	5849.67300
8.62648	0.00000	5849.67300
8.63033	0.00000	5849.67300
8.63418	0.00000	5854.50800
8.63802	0.00000	5854.50800
8.64186	0.00000	5854.50800
8.64569	0.00000	5854.50800
8.64954	0.00000	5854.50800
8.65338	0.00000	5854.50800
8.65723	0.00000	5854.50800
8.66104	0.00000	5854.50800
8.66488	0.00000	5843.30800
8.66872	0.00000	5843.30800
8.67255	0.00000	5843.30800
8.67641	0.00000	5843.30800
8.68026	0.00000	5843.30800
8.68410	0.00000	5843.30800
8.68795	0.00000	5843.30800
8.69178	0.00000	5843.30800
8.69563	0.00000	5837.41800
8.69947	0.00000	5837.41800
8.70330	0.00000	5837.41800
8.70715	0.00000	5837.41800
8.71100	0.00000	5837.41800
8.71484	0.00000	5837.41800
8.71869	0.00000	5837.41800
8.72252	0.00000	5837.41800
8.72636	0.00000	5844.26200
8.73020	0.00000	5844.26200
8.73404	0.00000	5844.26200
8.73789	0.00000	5844.26200
8.74173	0.00000	5844.26200
8.74557	0.00000	5844.26200
8.74941	0.00000	5844.26200
8.75326	0.00000	5846.55300
8.75711	0.00000	5846.55300
8.76096	0.00000	5846.55300
8.76480	0.00000	5846.55300
8.76865	0.00000	5846.55300
8.77249	0.00000	5846.55300
8.77633	0.00000	5846.55300
8.78017	0.00000	5846.55300
8.78403	0.00000	5849.18500
8.78790	0.00000	5849.18500
8.79174	0.00000	5849.18500
8.79559	0.00000	5849.18500
8.79943	0.00000	5849.18500
8.80327	0.00000	5849.18500
8.80711	0.00000	5849.18500
8.81095	0.00000	5849.18500
8.81479	0.00000	5853.26000
8.81862	0.00000	5853.26000
8.82246	0.00000	5853.26000
8.82630	0.00000	5853.26000
8.83014	0.00000	5853.26000
8.83398	0.00000	5853.26000
8.83781	0.00000	5853.26000
8.84167	0.00000	5853.26000
8.84551	0.00000	5847.38800
8.84935	0.00000	5847.38800
8.85319	0.00000	5847.38800
8.85703	0.00000	5847.38800
8.86088	0.00000	5847.38800
8.86472	0.00000	5847.38800
8.86855	0.00000	5847.38800
8.87239	0.00000	5848.11600
8.87622	0.00000	5848.11600
8.88007	0.00000	5848.11600
8.88391	0.00000	5848.11600
8.88775	0.00000	5848.11600
8.89159	0.00000	5848.11600
8.89542	0.00000	5848.11600
8.89926	0.00000	5848.11600
8.90309	0.00000	5850.97700
8.90693	0.00000	5850.97700
8.91079	0.00000	5850.97700
8.91462	0.00000	5850.97700
8.91846	0.00000	5850.97700
8.92229	0.00000	5850.97700
8.92615	0.00000	5850.97700
8.92998	0.00000	5850.97700
8.93384	0.00000	5859.37500
8.93768	0.00000	5859.37500
8.94152	0.00000	5859.37500
8.94536	0.00000	5859.37500
8.94920	0.00000	5859.37500
8.95304	0.00000	5859.37500
8.95688	0.00000	5859.37500
8.96071	0.00000	5859.37500
8.96455	0.00000	5855.04900
8.96839	0.00000	5855.04900
8.97225	0.00000	5855.04900
8.97608	0.00000	5855.04900
8.97992	0.00000	5855.04900
8.98376	0.00000	5855.04900
8.98759	0.00000	5855.04900
8.99143	0.00000	5856.30400
8.99528	0.00000	5856.30400
8.99912	0.00000	5856.30400
9.00296	0.00000	5856.30400
9.00680	0.00000	5856.30400
9.01065	0.00000	5856.30400
9.01448	0.00000	5856.30400
9.01832	0.00000	5856.30400
9.02216	0.00000	5849.18500
9.02600	0.00000	5849.18500
9.02984	0.00000	5849.18500
9.03368	0.00000	5849.18500
9.03752	0.00000	5849.18500
9.04136	0.00000	5849.18500
9.04520	0.00000	5849.18500
9.04904	0.00000	5849.18500
9.05288	0.00000	5855.04900
9.05672	0.00000	5855.04900
9.06057	0.00000	5855.04900
9.06441	0.00000	5855.04900
9.06825	0.00000	5855.04900
9.07209	0.00000	5855.04900
9.07593	0.00000	5855.04900
9.07977	0.00000	5855.04900
9.08361	0.00000	5848.94100
9.08745	0.00000	5848.94100
9.09130	0.00000	5848.94100
9.09514	0.00000	5848.94100
9.09898	0.00000	5848.94100
9.10281	0.00000	5848.94100
9.10665	0.00000	5848.94100
9.11049	0.00000	5862.70500
9.11433	0.00000	5862.70500
9.11817	0.00000	5862.70500
9.12200	0.00000	5862.70500
9.12586	0.00000	5862.70500
9.12970	0.00000	5862.70500
9.13354	0.00000	5862.70500
9.13738	0.00000	5862.70500
9.14121	0.00000	5856.30400
9.14504	0.00000	5856.30400
9.14889	0.00000	5856.30400
9.15273	0.00000	5856.30400
9.15659	0.00000	5856.30400
9.16044	0.00000	5856.30400
9.16429	0.00000	5856.30400
9.16813	0.00000	5856.30400
9.17198	0.00000	5853.01300
9.17583	0.00000	5853.01300
9.17967	0.00000	5853.01300
9.18352	0.00000	5853.01300
9.18736	0.00000	5853.01300
9.19121	0.00000	5853.01300
9.19507	0.00000	5853.01300
9.19891	0.00000	5853.01300
9.20276	0.00000	5850.97700
9.20660	0.00000	5850.97700
9.21044	0.00000	5850.97700
9.21428	0.00000	5850.97700
9.21812	0.00000	5850.97700
9.22196	0.00000	5850.97700
9.22580	0.00000	5850.97700
9.22964	0.00000	5850.97700
9.23347	0.00000	5849.42800
9.23731	0.00000	5849.42800
9.24116	0.00000	5849.42800
9.24500	0.00000	5849.42800
9.24884	0.00000	5849.42800
9.25268	0.00000	5849.42800
9.25651	0.00000	5849.42800
9.26035	0.00000	5854.50800
9.26421	0.00000	5854.50800
9.26804	0.00000	5854.50800
9.27188	0.00000	5854.50800
9.27571	0.00000	5854.50800
9.27956	0.00000	5854.50800
9.28342	0.00000	5854.50800
9.28727	0.00000	5854.50800
9.29111	0.00000	5850.97700
9.29494	0.00000	5850.97700
9.29877	0.00000	5850.97700
9.30261	0.00000	5850.97700
9.30645	0.00000	5850.97700
9.31028	0.00000	5850.97700
9.31412	0.00000	5850.97700
9.31796	0.00000	5850.97700
9.32180	0.00000	5853.01300
9.32563	0.00000	5853.01300
9.32946	0.00000	5853.01300
9.33332	0.00000	5853.01300
9.33716	0.00000	5853.01300
9.34099	0.00000	5853.01300
9.34483	0.00000	5853.01300
9.34866	0.00000	5853.01300
9.35250	0.00000	5850.97700
9.35635	0.00000	5850.97700
9.36018	0.00000	5850.97700
9.36401	0.00000	5850.97700
9.36784	0.00000	5850.97700
9.37168	0.00000	5850.97700
9.37552	0.00000	5850.97700
9.37935	0.00000	5856.55700
9.38321	0.00000	5856.55700
9.38704	0.00000	5856.55700
9.39088	0.00000	5856.55700
9.39471	0.00000	5856.55700
9.39855	0.00000	5856.55700
9.40239	0.00000	5856.55700
9.40622	0.00000	5856.55700
9.41005	0.00000	5847.87300
9.41390	0.00000	5847.87300
9.41773	0.00000	5847.87300
9.42158	0.00000	5847.87300
9.42542	0.00000	5847.87300
9.42926	0.00000	5847.87300
9.43310	0.00000	5847.87300
9.43695	0.00000	5847.87300
9.44078	0.00000	5851.22200
9.44462	0.00000	5851.22200
9.44846	0.00000	5851.22200
9.45231	0.00000	5851.22200
9.45614	0.00000	5851.22200
9.45998	0.00000	5851.22200
9.46382	0.00000	5851.22200
9.46767	0.00000	5851.22200
9.47152	0.00000	5857.33700
9.47537	0.00000	5857.33700
9.47921	0.00000	5857.33700
9.48304	0.00000	5857.33700
9.48688	0.00000	5857.33700
9.49071	0.00000	5857.33700
9.49455	0.00000	5857.33700
9.49840	0.00000	5860.65600
9.50222	0.00000	5860.65600
9.50606	0.00000	5860.65600
9.50989	0.00000	5860.65600
9.51373	0.00000	5860.65600
9.51757	0.00000	5860.65600
9.52140	0.00000	5860.65600
9.52523	0.00000	5860.65600
9.52904	0.00000	5854.00700
9.53287	0.00000	5854.00700
9.53671	0.00000	5854.00700
9.54055	0.00000	5854.00700
9.54438	0.00000	5854.00700
9.54822	0.00000	5854.00700
9.55205	0.00000	5854.00700
9.55589	0.00000	5854.00700
9.55973	0.00000	5850.73200
9.56356	0.00000	5850.73200
9.56739	0.00000	5850.73200
9.57123	0.00000	5850.73200
9.57507	0.00000	5850.73200
9.57891	0.00000	5850.73200
9.58274	0.00000	5850.73200
9.58658	0.00000	5850.73200
9.59042	0.00000	5855.04900
9.59425	0.00000	5855.04900
9.59808	0.00000	5855.04900
9.60192	0.00000	5855.04900
9.60575	0.00000	5855.04900
9.60959	0.00000	5855.04900
9.61343	0.00000	5855.04900
9.61726	0.00000	5855.04900
9.62110	0.00000	5855.04900
9.62493	0.00000	5855.04900
9.62877	0.00000	5855.04900
9.63260	0.00000	5855.04900
9.63645	0.00000	5855.04900
9.64028	0.00000	5855.04900
9.64412	0.00000	5855.04900
9.64795	0.00000	5856.30400
9.65178	0.00000	5856.30400
9.65561	0.00000	5856.30400
9.65945	0.00000	5856.30400
9.66329	0.00000	5856.30400
9.66712	0.00000	5856.30400
9.67096	0.00000	5856.30400
9.67480	0.00000	5856.30400
9.67864	0.00000	5845.34800
9.68248	0.00000	5845.34800
9.68631	0.00000	5845.34800
9.69015	0.00000	5845.34800
9.69399	0.00000	5845.34800
9.69782	0.00000	5845.34800
9.70165	0.00000	5845.34800
9.70549	0.00000	5845.34800
9.70932	0.00000	5853.26000
9.71316	0.00000	5853.26000
9.71699	0.00000	5853.26000
9.72083	0.00000	5853.26000
9.72466	0.00000	5853.26000
9.72850	0.00000	5853.26000
9.73234	0.00000	5853.26000
9.73619	0.00000	5853.26000
9.74003	0.00000	5855.04900
9.74387	0.00000	5855.04900
9.74771	0.00000	5855.04900
9.75156	0.00000	5855.04900
9.75539	0.00000	5855.04900
9.75923	0.00000	5855.04900
9.76306	0.00000	5855.04900
9.76692	0.00000	5855.04900
9.77075	0.00000	5864.49200
9.77458	0.00000	5864.49200
9.77842	0.00000	5864.49200
9.78229	0.00000	5864.49200
9.78614	0.00000	5864.49200
9.78998	0.00000	5864.49200
9.79382	0.00000	5864.49200
9.79766	0.00000	5856.55700
9.80152	0.00000	5856.55700
9.80537	0.00000	5856.55700
9.80921	0.00000	5856.55700
9.81304	0.00000	5856.55700
9.81689	0.00000	5856.55700
9.82074	0.00000	5856.55700
9.82459	0.00000	5856.55700
9.82843	0.00000	5854.79900
9.83228	0.00000	5854.79900
9.83611	0.00000	5854.79900
9.83995	0.00000	5854.79900
9.84380	0.00000	5854.79900
9.84765	0.00000	5854.79900
9.85150	0.00000	5854.79900
9.85533	0.00000	5854.79900
9.85918	0.00000	5859.12000
9.86302	0.00000	5859.12000
9.86686	0.00000	5859.12000
9.87070	0.00000	5859.12000
9.87456	0.00000	5859.12000
9.87840	0.00000	5859.12000
9.88225	0.00000	5859.12000
9.88608	0.00000	5859.12000
9.88993	0.00000	5857.33700
9.89378	0.00000	5857.33700
9.89762	0.00000	5857.33700
9.90145	0.00000	5857.33700
9.90529	0.00000	5857.33700
9.90915	0.00000	5857.33700
9.91299	0.00000	5857.33700
9.91685	0.00000	5856.81100
9.92071	0.00000	5856.81100
9.92456	0.00000	5856.81100
9.92840	0.00000	5856.81100
9.93225	0.00000	5856.81100
9.93610	0.00000	5856.81100
9.93994	0.00000	5856.81100
9.94378	0.00000	5856.81100
9.94763	0.00000	5850.97700
9.95147	0.00000	5850.97700
9.95532	0.00000	5850.97700
9.95915	0.00000	5850.97700
9.96299	0.00000	5850.97700
9.96683	0.00000	5850.97700
9.97068	0.00000	5850.97700
9.97451	0.00000	5850.97700
9.97835	0.00000	5859.37500
9.98219	0.00000	5859.37500
9.98604	0.00000	5859.37500
9.98988	0.00000	5859.37500
9.99371	0.00000	5859.37500
9.99755	0.00000	5859.37500
