Time (s)   Thrust (N)   RPM
0.00029	0.00000	4628.20000
0.00417	0.00000	4628.20000
0.00801	0.00000	4628.20000
0.01187	0.00000	4634.21700
0.01571	0.00000	4634.21700
0.01953	0.00000	4634.21700
0.02337	0.00000	4634.21700
0.02731	0.00000	4634.21700
0.03114	0.00000	4558.93700
0.03499	0.00000	4558.93700
0.03881	0.00000	4558.93700
0.04264	0.00000	4558.93700
0.04646	0.00000	4558.93700
0.05031	0.00000	4558.93700
0.05414	0.00000	4417.32300
0.05798	0.00000	4417.32300
0.06181	0.00000	4417.32300
0.06563	0.00000	4417.32300
0.06947	0.00000	4417.32300
0.07329	0.00000	4301.82900
0.07711	0.00000	4301.82900
0.08094	0.00000	4301.82900
0.08477	0.00000	4301.82900
0.08859	0.00000	4301.82900
0.09242	0.00000	4186.77200
0.09625	0.00000	4186.77200
0.10009	0.00000	4186.77200
0.10391	0.00000	4186.77200
0.10774	0.00000	4186.77200
0.11157	0.00000	4098.98400
0.11539	0.00000	4098.98400
0.11921	0.00000	4098.98400
0.12303	0.00000	4098.98400
0.12685	0.00000	4098.98400
0.13068	0.00000	4023.37000
0.13451	0.00000	4023.37000
0.13833	0.00000	4023.37000
0.14211	0.00000	4023.37000
0.14594	0.00000	4023.37000
0.14976	0.00000	3971.35400
0.15359	0.00000	3971.35400
0.15741	0.00000	3971.35400
0.16124	0.00000	3971.35400
0.16508	0.00000	3971.35400
0.16891	0.00000	3914.47300
0.17273	0.00000	3914.47300
0.17656	0.00000	3914.47300
0.18039	0.00000	3914.47300
0.18422	0.00000	3914.47300
0.18804	0.00000	3869.57400
0.19187	0.00000	3869.57400
0.19570	0.00000	3869.57400
0.19953	0.00000	3869.57400
0.20335	0.00000	3869.57400
0.20718	0.00000	3827.00800
0.21101	0.00000	3827.00800
0.21483	0.00000	3827.00800
0.21866	0.00000	3827.00800
0.22248	0.00000	3787.33000
0.22631	0.00000	3787.33000
0.23011	0.00000	3787.33000
0.23394	0.00000	3787.33000
0.23777	0.00000	3787.33000
0.24160	0.00000	3753.39000
0.24542	0.00000	3753.39000
0.24925	0.00000	3753.39000
0.25308	0.00000	3753.39000
0.25690	0.00000	3753.39000
0.26074	0.00000	3722.70200
0.26456	0.00000	3722.70200
0.26839	0.00000	3722.70200
0.27222	0.00000	3722.70200
0.27604	0.00000	3694.85200
0.27986	0.00000	3694.85200
0.28369	0.00000	3694.85200
0.28754	0.00000	3694.85200
0.29138	0.00000	3694.85200
0.29523	0.00000	3677.41900
0.29906	0.00000	3677.41900
0.30289	0.00000	3677.41900
0.30671	0.00000	3677.41900
0.31054	0.00000	3677.41900
0.31437	0.00000	3653.31500
0.31820	0.00000	3653.31500
0.32202	0.00000	3653.31500
0.32585	0.00000	3653.31500
0.32968	0.00000	3641.96100
0.33352	0.00000	3641.96100
0.33734	0.00000	3641.96100
0.34117	0.00000	3641.96100
0.34500	0.00000	3641.96100
0.34887	0.00000	3621.52700
0.35272	0.00000	3621.52700
0.35655	0.00000	3621.52700
0.36038	0.00000	3621.52700
0.36421	0.00000	3621.52700
0.36804	0.00000	3610.59500
0.37187	0.00000	3610.59500
0.37570	0.00000	3610.59500
0.37953	0.00000	3610.59500
0.38335	0.00000	3606.03900
0.38719	0.00000	3606.03900
0.39102	0.00000	3606.03900
0.39485	0.00000	3606.03900
0.39868	0.00000	3606.03900
0.40252	0.00000	3592.87700
0.40635	0.00000	3592.87700
0.41018	0.00000	3592.87700
0.41400	0.00000	3592.87700
0.41783	0.00000	3580.82700
0.42167	0.00000	3580.82700
0.42550	0.00000	3580.82700
0.42932	0.00000	3580.82700
0.43315	0.00000	3580.82700
0.43699	0.00000	3567.92700
0.44082	0.00000	3567.92700
0.44464	0.00000	3567.92700
0.44847	0.00000	3567.92700
0.45230	0.00000	3563.02900
0.45612	0.00000	3563.02900
0.45995	0.00000	3563.02900
0.46378	0.00000	3563.02900
0.46762	0.00000	3563.02900
0.47144	0.00000	3559.50100
0.47526	0.00000	3559.50100
0.47909	0.00000	3559.50100
0.48292	0.00000	3559.50100
0.48674	0.00000	3559.50100
0.49056	0.00000	3549.29500
0.49440	0.00000	3549.29500
0.49822	0.00000	3549.29500
0.50206	0.00000	3549.29500
0.50589	0.00000	3544.61700
0.50972	0.00000	3544.61700
0.51354	0.00000	3544.61700
0.51737	0.00000	3544.61700
0.52121	0.00000	3544.61700
0.52503	0.00000	3542.25300
0.52885	0.00000	3542.25300
0.53268	0.00000	3542.25300
0.53651	0.00000	3542.25300
0.54035	0.00000	3544.22900
0.54417	0.00000	3544.22900
0.54801	0.00000	3544.22900
0.55182	0.00000	3544.22900
0.55565	0.00000	3544.22900
0.55948	0.00000	3531.48400
0.56331	0.00000	3531.48400
0.56713	0.00000	3531.48400
0.57095	0.00000	3531.48400
0.57478	0.00000	3533.38000
0.57861	0.00000	3533.38000
0.58244	0.00000	3533.38000
0.58627	0.00000	3533.38000
0.59009	0.00000	3533.38000
0.59392	0.00000	3516.94900
0.59774	0.00000	3516.94900
0.60157	0.00000	3516.94900
0.60539	0.00000	3516.94900
0.60921	0.00000	3525.85300
0.61303	0.00000	3525.85300
0.61687	0.00000	3525.85300
0.62069	0.00000	3525.85300
0.62451	0.00000	3525.85300
0.62834	0.00000	3520.04700
0.63216	0.00000	3520.04700
0.63599	0.00000	3520.04700
0.63982	0.00000	3520.04700
0.64364	0.00000	3518.51800
0.64748	0.00000	3518.51800
0.65131	0.00000	3518.51800
0.65512	0.00000	3518.51800
0.65895	0.00000	3518.51800
0.66278	0.00000	3518.95700
0.66661	0.00000	3518.95700
0.67043	0.00000	3518.95700
0.67427	0.00000	3518.95700
0.67810	0.00000	3518.51800
0.68193	0.00000	3518.51800
0.68576	0.00000	3518.51800
0.68958	0.00000	3518.51800
0.69340	0.00000	3518.51800
0.69723	0.00000	3518.51800
0.70105	0.00000	3518.51800
0.70488	0.00000	3518.51800
0.70870	0.00000	3518.51800
0.71252	0.00000	3518.51800
0.71635	0.00000	3515.84600
0.72016	0.00000	3515.84600
0.72398	0.00000	3515.84600
0.72781	0.00000	3515.84600
0.73164	0.00000	3507.37300
0.73547	0.00000	3507.37300
0.73929	0.00000	3507.37300
0.74312	0.00000	3507.37300
0.74694	0.00000	3507.37300
0.75077	0.00000	3512.52300
0.75459	0.00000	3512.52300
0.75841	0.00000	3512.52300
0.76225	0.00000	3512.52300
0.76607	0.00000	3511.16900
0.76992	0.00000	3511.16900
0.77374	0.00000	3511.16900
0.77756	0.00000	3511.16900
0.78139	0.00000	3511.16900
0.78521	0.00000	3501.89000
0.78903	0.00000	3501.89000
0.79287	0.00000	3501.89000
0.79669	0.00000	3501.89000
0.80051	0.00000	3510.94200
0.80434	0.00000	3510.94200
0.80816	0.00000	3510.94200
0.81199	0.00000	3510.94200
0.81582	0.00000	3510.94200
0.81965	0.00000	3512.52300
0.82348	0.00000	3512.52300
0.82730	0.00000	3512.52300
0.83112	0.00000	3512.52300
0.83495	0.00000	3503.80600
0.83876	0.00000	3503.80600
0.84259	0.00000	3503.80600
0.84642	0.00000	3503.80600
0.85024	0.00000	3503.80600
0.85407	0.00000	3508.75100
0.85790	0.00000	3508.75100
0.86173	0.00000	3508.75100
0.86556	0.00000	3508.75100
0.86939	0.00000	3507.37300
0.87321	0.00000	3507.37300
0.87704	0.00000	3507.37300
0.88087	0.00000	3507.37300
0.88469	0.00000	3507.37300
0.88851	0.00000	3501.65500
0.89233	0.00000	3501.65500
0.89616	0.00000	3501.65500
0.89999	0.00000	3501.65500
0.90382	0.00000	3500.23700
0.90766	0.00000	3500.23700
0.91149	0.00000	3500.23700
0.91531	0.00000	3500.23700
0.91913	0.00000	3500.23700
0.92296	0.00000	3501.89000
0.92678	0.00000	3501.89000
0.93061	0.00000	3501.89000
0.93444	0.00000	3501.89000
0.93827	0.00000	3503.57100
0.94209	0.00000	3503.57100
0.94591	0.00000	3503.57100
0.94974	0.00000	3503.57100
0.95356	0.00000	3503.57100
0.95739	0.00000	3498.10800
0.96121	0.00000	3498.10800
0.96504	0.00000	3498.10800
0.96887	0.00000	3498.10800
0.97269	0.00000	3500.00000
0.97652	0.00000	3500.00000
0.98035	0.00000	3500.00000
0.98417	0.00000	3500.00000
0.98800	0.00000	3500.00000
0.99182	0.00000	3501.42000
0.99564	0.00000	3501.42000
0.99947	0.00000	3501.42000
1.00329	0.00000	3501.42000
1.00712	0.00000	3500.00000
1.01095	0.00000	3500.00000
1.01478	0.00000	3500.00000
1.01861	0.00000	3500.00000
1.02243	0.00000	3500.00000
1.02625	0.00000	3505.20300
1.03007	0.00000	3505.20300
1.03391	0.00000	3505.20300
1.03773	0.00000	3505.20300
1.04155	0.00000	3503.80600
1.04538	0.00000	3503.80600
1.04920	0.00000	3503.80600
1.05303	0.00000	3503.80600
1.05685	0.00000	3503.80600
1.06067	0.00000	3504.73900
1.06450	0.00000	3504.73900
1.06833	0.00000	3504.73900
1.07216	0.00000	3504.73900
1.07599	0.00000	3503.57100
1.07981	0.00000	3503.57100
1.08363	0.00000	3503.57100
1.08745	0.00000	3503.57100
1.09127	0.00000	3503.57100
1.09509	0.00000	3504.27300
1.09891	0.00000	3504.27300
1.10274	0.00000	3504.27300
1.10656	0.00000	3504.27300
1.11038	0.00000	3507.14300
1.11420	0.00000	3507.14300
1.11802	0.00000	3507.14300
1.12184	0.00000	3507.14300
1.12568	0.00000	3507.14300
1.12950	0.00000	3503.57100
1.13333	0.00000	3503.57100
1.13714	0.00000	3503.57100
1.14097	0.00000	3503.57100
1.14479	0.00000	3503.57100
1.14862	0.00000	3500.23700
1.15244	0.00000	3500.23700
1.15627	0.00000	3500.23700
1.16010	0.00000	3500.23700
1.16393	0.00000	3507.14300
1.16776	0.00000	3507.14300
1.17158	0.00000	3507.14300
1.17541	0.00000	3507.14300
1.17923	0.00000	3507.14300
1.18305	0.00000	3504.73900
1.18688	0.00000	3504.73900
1.19071	0.00000	3504.73900
1.19454	0.00000	3504.73900
1.19835	0.00000	3503.80600
1.20219	0.00000	3503.80600
1.20601	0.00000	3503.80600
1.20983	0.00000	3503.80600
1.21366	0.00000	3503.80600
1.21749	0.00000	3504.97100
1.22131	0.00000	3504.97100
1.22514	0.00000	3504.97100
1.22896	0.00000	3504.97100
1.23279	0.00000	3500.23700
1.23661	0.00000	3500.23700
1.24043	0.00000	3500.23700
1.24426	0.00000	3500.23700
1.24808	0.00000	3500.23700
1.25190	0.00000	3504.97100
1.25572	0.00000	3504.97100
1.25955	0.00000	3504.97100
1.26337	0.00000	3504.97100
1.26720	0.00000	3500.00000
1.27102	0.00000	3500.00000
1.27484	0.00000	3500.00000
1.27866	0.00000	3500.00000
1.28249	0.00000	3500.00000
1.28632	0.00000	3498.10800
1.29011	0.00000	3498.10800
1.29394	0.00000	3498.10800
1.29776	0.00000	3498.10800
1.30159	0.00000	3500.23700
1.30542	0.00000	3500.23700
1.30924	0.00000	3500.23700
1.31307	0.00000	3500.23700
1.31689	0.00000	3500.23700
1.32072	0.00000	3501.65500
1.32455	0.00000	3501.65500
1.32838	0.00000	3501.65500
1.33220	0.00000	3501.65500
1.33602	0.00000	3500.23700
1.33984	0.00000	3500.23700
1.34367	0.00000	3500.23700
1.34749	0.00000	3500.23700
1.35131	0.00000	3500.23700
1.35514	0.00000	3501.65500
1.35897	0.00000	3501.65500
1.36280	0.00000	3501.65500
1.36663	0.00000	3501.65500
1.37045	0.00000	3496.18600
1.37427	0.00000	3496.18600
1.37810	0.00000	3496.18600
1.38193	0.00000	3496.18600
1.38576	0.00000	3496.18600
1.38959	0.00000	3498.10800
1.39342	0.00000	3498.10800
1.39724	0.00000	3498.10800
1.40106	0.00000	3498.10800
1.40488	0.00000	3496.42800
1.40870	0.00000	3496.42800
1.41253	0.00000	3496.42800
1.41635	0.00000	3496.42800
1.42017	0.00000	3496.42800
1.42400	0.00000	3501.89000
1.42783	0.00000	3501.89000
1.43165	0.00000	3501.89000
1.43547	0.00000	3501.89000
1.43930	0.00000	3500.23700
1.44313	0.00000	3500.23700
1.44696	0.00000	3500.23700
1.45079	0.00000	3500.23700
1.45461	0.00000	3500.23700
1.45844	0.00000	3498.10800
1.46226	0.00000	3498.10800
1.46608	0.00000	3498.10800
1.46991	0.00000	3498.10800
1.47373	0.00000	3500.23700
1.47756	0.00000	3500.23700
1.48139	0.00000	3500.23700
1.48521	0.00000	3500.23700
1.48904	0.00000	3500.23700
1.49286	0.00000	3501.42000
1.49668	0.00000	3501.42000
1.50050	0.00000	3501.42000
1.50434	0.00000	3501.42000
1.50817	0.00000	3503.57100
1.51201	0.00000	3503.57100
1.51584	0.00000	3503.57100
1.51967	0.00000	3503.57100
1.52349	0.00000	3503.57100
1.52732	0.00000	3508.06400
1.53114	0.00000	3508.06400
1.53496	0.00000	3508.06400
1.53879	0.00000	3508.06400
1.54261	0.00000	3503.57100
1.54643	0.00000	3503.57100
1.55028	0.00000	3503.57100
1.55411	0.00000	3503.57100
1.55794	0.00000	3503.57100
1.56176	0.00000	3504.03900
1.56559	0.00000	3504.03900
1.56941	0.00000	3504.03900
1.57323	0.00000	3504.03900
1.57706	0.00000	3500.23700
1.58088	0.00000	3500.23700
1.58471	0.00000	3500.23700
1.58853	0.00000	3500.23700
1.59236	0.00000	3500.23700
1.59618	0.00000	3500.47500
1.60001	0.00000	3500.47500
1.60383	0.00000	3500.47500
1.60766	0.00000	3500.47500
1.61147	0.00000	3500.23700
1.61529	0.00000	3500.23700
1.61912	0.00000	3500.23700
1.62294	0.00000	3500.23700
1.62676	0.00000	3500.23700
1.63059	0.00000	3500.00000
1.63442	0.00000	3500.00000
1.63824	0.00000	3500.00000
1.64206	0.00000	3500.00000
1.64589	0.00000	3500.00000
1.64971	0.00000	3504.03900
1.65353	0.00000	3504.03900
1.65736	0.00000	3504.03900
1.66118	0.00000	3504.03900
1.66501	0.00000	3503.57100
1.66884	0.00000	3503.57100
1.67267	0.00000	3503.57100
1.67650	0.00000	3503.57100
1.68033	0.00000	3503.57100
1.68415	0.00000	3504.50600
1.68798	0.00000	3504.50600
1.69181	0.00000	3504.50600
1.69563	0.00000	3504.50600
1.69945	0.00000	3503.57100
1.70327	0.00000	3503.57100
1.70711	0.00000	3503.57100
1.71093	0.00000	3503.57100
1.71476	0.00000	3503.57100
1.71858	0.00000	3498.10800
1.72241	0.00000	3498.10800
1.72624	0.00000	3498.10800
1.73006	0.00000	3498.10800
1.73391	0.00000	3496.42800
1.73774	0.00000	3496.42800
1.74157	0.00000	3496.42800
1.74539	0.00000	3496.42800
1.74922	0.00000	3496.42800
1.75304	0.00000	3501.65500
1.75686	0.00000	3501.65500
1.76069	0.00000	3501.65500
1.76452	0.00000	3501.65500
1.76835	0.00000	3500.00000
1.77217	0.00000	3500.00000
1.77600	0.00000	3500.00000
1.77982	0.00000	3500.00000
1.78363	0.00000	3500.00000
1.78746	0.00000	3501.42000
1.79128	0.00000	3501.42000
1.79511	0.00000	3501.42000
1.79892	0.00000	3501.42000
1.80274	0.00000	3499.76100
1.80656	0.00000	3499.76100
1.81039	0.00000	3499.76100
1.81423	0.00000	3499.76100
1.81805	0.00000	3499.76100
1.82187	0.00000	3497.86900
1.82570	0.00000	3497.86900
1.82953	0.00000	3497.86900
1.83335	0.00000	3497.86900
1.83718	0.00000	3500.23700
1.84101	0.00000	3500.23700
1.84484	0.00000	3500.23700
1.84867	0.00000	3500.23700
1.85249	0.00000	3500.23700
1.85632	0.00000	3501.89000
1.86014	0.00000	3501.89000
1.86397	0.00000	3501.89000
1.86779	0.00000	3501.89000
1.87162	0.00000	3503.57100
1.87545	0.00000	3503.57100
1.87927	0.00000	3503.57100
1.88310	0.00000	3503.57100
1.88692	0.00000	3503.57100
1.89074	0.00000	3505.20300
1.89457	0.00000	3505.20300
1.89839	0.00000	3505.20300
1.90223	0.00000	3505.20300
1.90605	0.00000	3500.00000
1.90987	0.00000	3500.00000
1.91369	0.00000	3500.00000
1.91752	0.00000	3500.00000
1.92134	0.00000	3500.00000
1.92517	0.00000	3498.10800
1.92899	0.00000	3498.10800
1.93281	0.00000	3498.10800
1.93664	0.00000	3498.10800
1.94047	0.00000	3500.00000
1.94430	0.00000	3500.00000
1.94812	0.00000	3500.00000
1.95194	0.00000	3500.00000
1.95577	0.00000	3500.00000
1.95959	0.00000	3501.65500
1.96341	0.00000	3501.65500
1.96723	0.00000	3501.65500
1.97106	0.00000	3501.65500
1.97489	0.00000	3503.57100
1.97871	0.00000	3503.57100
1.98253	0.00000	3503.57100
1.98635	0.00000	3503.57100
1.99017	0.00000	3503.57100
1.99400	0.00000	3505.20300
1.99782	0.00000	3505.20300
2.00165	0.00000	3505.20300
2.00548	0.00000	3505.20300
2.00929	0.00000	3500.00000
2.01312	0.00000	3500.00000
2.01694	0.00000	3500.00000
2.02077	0.00000	3500.00000
2.02459	0.00000	3500.00000
2.02842	0.00000	3498.10800
2.03224	0.00000	3498.10800
2.03607	0.00000	3498.10800
2.03989	0.00000	3498.10800
2.04373	0.00000	3500.00000
2.04755	0.00000	3500.00000
2.05138	0.00000	3500.00000
2.05520	0.00000	3500.00000
2.05903	0.00000	3500.00000
2.06286	0.00000	3500.94800
2.06668	0.00000	3500.94800
2.07051	0.00000	3500.94800
2.07434	0.00000	3500.94800
2.07817	0.00000	3503.33600
2.08199	0.00000	3503.33600
2.08581	0.00000	3503.33600
2.08963	0.00000	3503.33600
2.09346	0.00000	3503.33600
2.09728	0.00000	3500.47500
2.10111	0.00000	3500.47500
2.10495	0.00000	3500.47500
2.10876	0.00000	3500.47500
2.11259	0.00000	3500.23700
2.11641	0.00000	3500.23700
2.12023	0.00000	3500.23700
2.12406	0.00000	3500.23700
2.12788	0.00000	3500.23700
2.13170	0.00000	3500.23700
2.13553	0.00000	3500.23700
2.13935	0.00000	3500.23700
2.14317	0.00000	3500.23700
2.14699	0.00000	3492.85700
2.15081	0.00000	3492.85700
2.15463	0.00000	3492.85700
2.15846	0.00000	3492.85700
2.16228	0.00000	3492.85700
2.16610	0.00000	3500.00000
2.16994	0.00000	3500.00000
2.17377	0.00000	3500.00000
2.17759	0.00000	3500.00000
2.18142	0.00000	3500.00000
2.18523	0.00000	3496.91000
2.18906	0.00000	3496.91000
2.19289	0.00000	3496.91000
2.19671	0.00000	3496.91000
2.20053	0.00000	3503.33600
2.20435	0.00000	3503.33600
2.20818	0.00000	3503.33600
2.21200	0.00000	3503.33600
2.21583	0.00000	3503.33600
2.21965	0.00000	3501.18400
2.22348	0.00000	3501.18400
2.22730	0.00000	3501.18400
2.23113	0.00000	3501.18400
2.23495	0.00000	3499.76100
2.23878	0.00000	3499.76100
2.24260	0.00000	3499.76100
2.24642	0.00000	3499.76100
2.25025	0.00000	3499.76100
2.25408	0.00000	3497.86900
2.25791	0.00000	3497.86900
2.26173	0.00000	3497.86900
2.26555	0.00000	3497.86900
2.26938	0.00000	3500.00000
2.27320	0.00000	3500.00000
2.27703	0.00000	3500.00000
2.28087	0.00000	3500.00000
2.28469	0.00000	3500.00000
2.28852	0.00000	3501.42000
2.29234	0.00000	3501.42000
2.29616	0.00000	3501.42000
2.30000	0.00000	3501.42000
2.30383	0.00000	3500.00000
2.30764	0.00000	3500.00000
2.31146	0.00000	3500.00000
2.31528	0.00000	3500.00000
2.31911	0.00000	3500.00000
2.32293	0.00000	3497.86900
2.32676	0.00000	3497.86900
2.33059	0.00000	3497.86900
2.33441	0.00000	3497.86900
2.33824	0.00000	3503.33600
2.34206	0.00000	3503.33600
2.34589	0.00000	3503.33600
2.34972	0.00000	3503.33600
2.35355	0.00000	3503.33600
2.35737	0.00000	3501.65500
2.36120	0.00000	3501.65500
2.36502	0.00000	3501.65500
2.36884	0.00000	3501.65500
2.37267	0.00000	3503.57100
2.37650	0.00000	3503.57100
2.38033	0.00000	3503.57100
2.38415	0.00000	3503.57100
2.38798	0.00000	3503.57100
2.39180	0.00000	3501.65500
2.39562	0.00000	3501.65500
2.39944	0.00000	3501.65500
2.40326	0.00000	3501.65500
2.40709	0.00000	3492.85700
2.41091	0.00000	3492.85700
2.41473	0.00000	3492.85700
2.41856	0.00000	3492.85700
2.42237	0.00000	3492.85700
2.42620	0.00000	3494.07600
2.43002	0.00000	3494.07600
2.43384	0.00000	3494.07600
2.43766	0.00000	3494.07600
2.44148	0.00000	3492.61200
2.44530	0.00000	3492.61200
2.44912	0.00000	3492.61200
2.45294	0.00000	3492.61200
2.45677	0.00000	3492.61200
2.46060	0.00000	3497.86900
2.46443	0.00000	3497.86900
2.46825	0.00000	3497.86900
2.47207	0.00000	3497.86900
2.47590	0.00000	3503.33600
2.47973	0.00000	3503.33600
2.48356	0.00000	3503.33600
2.48738	0.00000	3503.33600
2.49120	0.00000	3503.33600
2.49502	0.00000	3497.86900
2.49886	0.00000	3497.86900
2.50268	0.00000	3497.86900
2.50650	0.00000	3497.86900
2.51032	0.00000	3496.67000
2.51411	0.00000	3496.67000
2.51794	0.00000	3496.67000
2.52176	0.00000	3496.67000
2.52558	0.00000	3496.67000
2.52941	0.00000	3497.86900
2.53323	0.00000	3497.86900
2.53706	0.00000	3497.86900
2.54088	0.00000	3497.86900
2.54470	0.00000	3496.42800
2.54852	0.00000	3496.42800
2.55235	0.00000	3496.42800
2.55617	0.00000	3496.42800
2.56001	0.00000	3496.42800
2.56384	0.00000	3497.63000
2.56767	0.00000	3497.63000
2.57149	0.00000	3497.63000
2.57531	0.00000	3497.63000
2.57914	0.00000	3496.18600
2.58296	0.00000	3496.18600
2.58679	0.00000	3496.18600
2.59061	0.00000	3496.18600
2.59444	0.00000	3496.18600
2.59826	0.00000	3497.39000
2.60210	0.00000	3497.39000
2.60593	0.00000	3497.39000
2.60975	0.00000	3497.39000
2.61358	0.00000	3496.42800
2.61742	0.00000	3496.42800
2.62124	0.00000	3496.42800
2.62507	0.00000	3496.42800
2.62889	0.00000	3496.42800
2.63272	0.00000	3504.50600
2.63655	0.00000	3504.50600
2.64038	0.00000	3504.50600
2.64420	0.00000	3504.50600
2.64803	0.00000	3492.85700
2.65185	0.00000	3492.85700
2.65567	0.00000	3492.85700
2.65949	0.00000	3492.85700
2.66331	0.00000	3492.85700
2.66713	0.00000	3496.67000
2.67096	0.00000	3496.67000
2.67479	0.00000	3496.67000
2.67862	0.00000	3496.67000
2.68245	0.00000	3492.85700
2.68628	0.00000	3492.85700
2.69010	0.00000	3492.85700
2.69392	0.00000	3492.85700
2.69774	0.00000	3492.85700
2.70157	0.00000	3500.00000
2.70539	0.00000	3500.00000
2.70922	0.00000	3500.00000
2.71304	0.00000	3500.00000
2.71687	0.00000	3499.76100
2.72070	0.00000	3499.76100
2.72453	0.00000	3499.76100
2.72835	0.00000	3499.76100
2.73218	0.00000	3499.76100
2.73600	0.00000	3492.85700
2.73982	0.00000	3492.85700
2.74364	0.00000	3492.85700
2.74747	0.00000	3492.85700
2.75130	0.00000	3492.85700
2.75511	0.00000	3492.85700
2.75894	0.00000	3492.85700
2.76276	0.00000	3492.85700
2.76658	0.00000	3492.85700
2.77041	0.00000	3496.18600
2.77424	0.00000	3496.18600
2.77807	0.00000	3496.18600
2.78189	0.00000	3496.18600
2.78572	0.00000	3496.18600
2.78954	0.00000	3496.42800
2.79336	0.00000	3496.42800
2.79719	0.00000	3496.42800
2.80101	0.00000	3496.42800
2.80483	0.00000	3492.36600
2.80865	0.00000	3492.36600
2.81247	0.00000	3492.36600
2.81629	0.00000	3492.36600
2.82013	0.00000	3492.36600
2.82395	0.00000	3497.15100
2.82777	0.00000	3497.15100
2.83160	0.00000	3497.15100
2.83543	0.00000	3497.15100
2.83926	0.00000	3496.18600
2.84309	0.00000	3496.18600
2.84692	0.00000	3496.18600
2.85075	0.00000	3496.18600
2.85457	0.00000	3496.18600
2.85838	0.00000	3493.83300
2.86221	0.00000	3493.83300
2.86604	0.00000	3493.83300
2.86986	0.00000	3493.83300
2.87368	0.00000	3489.28500
2.87750	0.00000	3489.28500
2.88132	0.00000	3489.28500
2.88514	0.00000	3489.28500
2.88897	0.00000	3489.28500
2.89279	0.00000	3493.58900
2.89661	0.00000	3493.58900
2.90044	0.00000	3493.58900
2.90426	0.00000	3493.58900
2.90808	0.00000	3499.76100
2.91190	0.00000	3499.76100
2.91572	0.00000	3499.76100
2.91954	0.00000	3499.76100
2.92336	0.00000	3499.76100
2.92718	0.00000	3501.42000
2.93102	0.00000	3501.42000
2.93484	0.00000	3501.42000
2.93867	0.00000	3501.42000
2.94249	0.00000	3495.94400
2.94632	0.00000	3495.94400
2.95011	0.00000	3495.94400
2.95394	0.00000	3495.94400
2.95776	0.00000	3495.94400
2.96159	0.00000	3494.56000
2.96541	0.00000	3494.56000
2.96923	0.00000	3494.56000
2.97306	0.00000	3494.56000
2.97688	0.00000	3500.00000
2.98071	0.00000	3500.00000
2.98453	0.00000	3500.00000
2.98835	0.00000	3500.00000
2.99217	0.00000	3500.00000
2.99600	0.00000	3494.31800
2.99983	0.00000	3494.31800
3.00365	0.00000	3494.31800
3.00748	0.00000	3494.31800
3.01130	0.00000	3492.36600
3.01512	0.00000	3492.36600
3.01894	0.00000	3492.36600
3.02277	0.00000	3492.36600
3.02659	0.00000	3492.36600
3.03041	0.00000	3494.07600
3.03424	0.00000	3494.07600
3.03805	0.00000	3494.07600
3.04187	0.00000	3494.07600
3.04569	0.00000	3496.18600
3.04952	0.00000	3496.18600
3.05334	0.00000	3496.18600
3.05716	0.00000	3496.18600
3.06098	0.00000	3496.18600
3.06480	0.00000	3494.31800
3.06862	0.00000	3494.31800
3.07245	0.00000	3494.31800
3.07628	0.00000	3494.31800
3.08009	0.00000	3496.42800
3.08392	0.00000	3496.42800
3.08774	0.00000	3496.42800
3.09157	0.00000	3496.42800
3.09539	0.00000	3496.42800
3.09922	0.00000	3497.86900
3.10304	0.00000	3497.86900
3.10687	0.00000	3497.86900
3.11069	0.00000	3497.86900
3.11452	0.00000	3499.76100
3.11835	0.00000	3499.76100
3.12218	0.00000	3499.76100
3.12600	0.00000	3499.76100
3.12983	0.00000	3499.76100
3.13365	0.00000	3501.42000
3.13747	0.00000	3501.42000
3.14129	0.00000	3501.42000
3.14511	0.00000	3501.42000
3.14896	0.00000	3499.76100
3.15279	0.00000	3499.76100
3.15661	0.00000	3499.76100
3.16043	0.00000	3499.76100
3.16425	0.00000	3499.76100
3.16808	0.00000	3501.42000
3.17190	0.00000	3501.42000
3.17573	0.00000	3501.42000
3.17955	0.00000	3501.42000
3.18337	0.00000	3499.76100
3.18721	0.00000	3499.76100
3.19104	0.00000	3499.76100
3.19486	0.00000	3499.76100
3.19868	0.00000	3499.76100
3.20251	0.00000	3494.80100
3.20634	0.00000	3494.80100
3.21017	0.00000	3494.80100
3.21399	0.00000	3494.80100
3.21782	0.00000	3499.76100
3.22164	0.00000	3499.76100
3.22546	0.00000	3499.76100
3.22929	0.00000	3499.76100
3.23311	0.00000	3499.76100
3.23694	0.00000	3501.18400
3.24076	0.00000	3501.18400
3.24458	0.00000	3501.18400
3.24840	0.00000	3501.18400
3.25223	0.00000	3492.61200
3.25605	0.00000	3492.61200
3.25987	0.00000	3492.61200
3.26369	0.00000	3492.61200
3.26752	0.00000	3492.61200
3.27135	0.00000	3496.91000
3.27517	0.00000	3496.91000
3.27899	0.00000	3496.91000
3.28281	0.00000	3496.91000
3.28664	0.00000	3492.85700
3.29046	0.00000	3492.85700
3.29428	0.00000	3492.85700
3.29811	0.00000	3492.85700
3.30194	0.00000	3492.85700
3.30576	0.00000	3493.10100
3.30959	0.00000	3493.10100
3.31341	0.00000	3493.10100
3.31723	0.00000	3493.10100
3.32105	0.00000	3496.42800
3.32487	0.00000	3496.42800
3.32870	0.00000	3496.42800
3.33252	0.00000	3496.42800
3.33636	0.00000	3496.42800
3.34018	0.00000	3500.23700
3.34400	0.00000	3500.23700
3.34783	0.00000	3500.23700
3.35165	0.00000	3500.23700
3.35547	0.00000	3496.42800
3.35929	0.00000	3496.42800
3.36311	0.00000	3496.42800
3.36694	0.00000	3496.42800
3.37076	0.00000	3496.42800
3.37458	0.00000	3496.18600
3.37840	0.00000	3496.18600
3.38222	0.00000	3496.18600
3.38604	0.00000	3496.18600
3.38986	0.00000	3496.18600
3.39368	0.00000	3493.34600
3.39750	0.00000	3493.34600
3.40132	0.00000	3493.34600
3.40514	0.00000	3493.34600
3.40897	0.00000	3496.18600
3.41279	0.00000	3496.18600
3.41661	0.00000	3496.18600
3.42043	0.00000	3496.18600
3.42427	0.00000	3496.18600
3.42809	0.00000	3497.39000
3.43192	0.00000	3497.39000
3.43574	0.00000	3497.39000
3.43957	0.00000	3497.39000
3.44339	0.00000	3496.42800
3.44721	0.00000	3496.42800
3.45103	0.00000	3496.42800
3.45485	0.00000	3496.42800
3.45867	0.00000	3496.42800
3.46250	0.00000	3490.27500
3.46632	0.00000	3490.27500
3.47011	0.00000	3490.27500
3.47394	0.00000	3490.27500
3.47776	0.00000	3496.18600
3.48157	0.00000	3496.18600
3.48539	0.00000	3496.18600
3.48922	0.00000	3496.18600
3.49305	0.00000	3496.18600
3.49687	0.00000	3494.07600
3.50069	0.00000	3494.07600
3.50451	0.00000	3494.07600
3.50834	0.00000	3494.07600
3.51216	0.00000	3495.94400
3.51599	0.00000	3495.94400
3.51981	0.00000	3495.94400
3.52363	0.00000	3495.94400
3.52746	0.00000	3495.94400
3.53129	0.00000	3494.07600
3.53512	0.00000	3494.07600
3.53895	0.00000	3494.07600
3.54276	0.00000	3494.07600
3.54659	0.00000	3492.36600
3.55042	0.00000	3492.36600
3.55424	0.00000	3492.36600
3.55806	0.00000	3492.36600
3.56190	0.00000	3492.36600
3.56572	0.00000	3494.56000
3.56954	0.00000	3494.56000
3.57337	0.00000	3494.56000
3.57719	0.00000	3494.56000
3.58102	0.00000	3492.61200
3.58484	0.00000	3492.61200
3.58867	0.00000	3492.61200
3.59250	0.00000	3492.61200
3.59633	0.00000	3492.61200
3.60015	0.00000	3490.76600
3.60398	0.00000	3490.76600
3.60780	0.00000	3490.76600
3.61163	0.00000	3490.76600
3.61545	0.00000	3495.94400
3.61927	0.00000	3495.94400
3.62310	0.00000	3495.94400
3.62693	0.00000	3495.94400
3.63075	0.00000	3495.94400
3.63457	0.00000	3494.31800
3.63840	0.00000	3494.31800
3.64222	0.00000	3494.31800
3.64604	0.00000	3494.31800
3.64986	0.00000	3496.18600
3.65369	0.00000	3496.18600
3.65751	0.00000	3496.18600
3.66134	0.00000	3496.18600
3.66517	0.00000	3496.18600
3.66899	0.00000	3494.31800
3.67281	0.00000	3494.31800
3.67664	0.00000	3494.31800
3.68046	0.00000	3494.31800
3.68429	0.00000	3488.53800
3.68811	0.00000	3488.53800
3.69194	0.00000	3488.53800
3.69577	0.00000	3488.53800
3.69960	0.00000	3488.53800
3.70342	0.00000	3497.86900
3.70725	0.00000	3497.86900
3.71107	0.00000	3497.86900
3.71489	0.00000	3497.86900
3.71873	0.00000	3499.52200
3.72257	0.00000	3499.52200
3.72640	0.00000	3499.52200
3.73022	0.00000	3499.52200
3.73405	0.00000	3499.52200
3.73787	0.00000	3497.63000
3.74169	0.00000	3497.63000
3.74552	0.00000	3497.63000
3.74935	0.00000	3497.63000
3.75317	0.00000	3492.36600
3.75700	0.00000	3492.36600
3.76083	0.00000	3492.36600
3.76466	0.00000	3492.36600
3.76847	0.00000	3492.36600
3.77229	0.00000	3490.27500
3.77612	0.00000	3490.27500
3.77994	0.00000	3490.27500
3.78376	0.00000	3490.27500
3.78758	0.00000	3496.18600
3.79141	0.00000	3496.18600
3.79523	0.00000	3496.18600
3.79906	0.00000	3496.18600
3.80289	0.00000	3496.18600
3.80673	0.00000	3494.31800
3.81055	0.00000	3494.31800
3.81437	0.00000	3494.31800
3.81819	0.00000	3494.31800
3.82201	0.00000	3492.61200
3.82585	0.00000	3492.61200
3.82967	0.00000	3492.61200
3.83349	0.00000	3492.61200
3.83731	0.00000	3492.61200
3.84113	0.00000	3490.76600
3.84496	0.00000	3490.76600
3.84879	0.00000	3490.76600
3.85261	0.00000	3490.76600
3.85643	0.00000	3492.36600
3.86027	0.00000	3492.36600
3.86409	0.00000	3492.36600
3.86791	0.00000	3492.36600
3.87173	0.00000	3492.36600
3.87556	0.00000	3490.27500
3.87938	0.00000	3490.27500
3.88321	0.00000	3490.27500
3.88704	0.00000	3490.27500
3.89086	0.00000	3492.61200
3.89470	0.00000	3492.61200
3.89851	0.00000	3492.61200
3.90233	0.00000	3492.61200
3.90611	0.00000	3492.61200
3.90994	0.00000	3486.71700
3.91376	0.00000	3486.71700
3.91759	0.00000	3486.71700
3.92142	0.00000	3486.71700
3.92525	0.00000	3492.85700
3.92908	0.00000	3492.85700
3.93290	0.00000	3492.85700
3.93673	0.00000	3492.85700
3.94056	0.00000	3492.85700
3.94439	0.00000	3497.39000
3.94821	0.00000	3497.39000
3.95204	0.00000	3497.39000
3.95586	0.00000	3497.39000
3.95968	0.00000	3495.94400
3.96351	0.00000	3495.94400
3.96733	0.00000	3495.94400
3.97116	0.00000	3495.94400
3.97498	0.00000	3495.94400
3.97881	0.00000	3489.78100
3.98263	0.00000	3489.78100
3.98645	0.00000	3489.78100
3.99027	0.00000	3489.78100
3.99410	0.00000	3495.94400
3.99793	0.00000	3495.94400
4.00175	0.00000	3495.94400
4.00558	0.00000	3495.94400
4.00940	0.00000	3495.94400
4.01322	0.00000	3496.67000
4.01704	0.00000	3496.67000
4.02086	0.00000	3496.67000
4.02469	0.00000	3496.67000
4.02851	0.00000	3492.61200
4.03233	0.00000	3492.61200
4.03616	0.00000	3492.61200
4.03999	0.00000	3492.61200
4.04382	0.00000	3492.61200
4.04764	0.00000	3496.42800
4.05146	0.00000	3496.42800
4.05528	0.00000	3496.42800
4.05911	0.00000	3496.42800
4.06293	0.00000	3492.61200
4.06675	0.00000	3492.61200
4.07057	0.00000	3492.61200
4.07440	0.00000	3492.61200
4.07822	0.00000	3492.61200
4.08205	0.00000	3492.61200
4.08587	0.00000	3492.61200
4.08969	0.00000	3492.61200
4.09352	0.00000	3492.61200
4.09735	0.00000	3489.53300
4.10117	0.00000	3489.53300
4.10499	0.00000	3489.53300
4.10882	0.00000	3489.53300
4.11264	0.00000	3489.53300
4.11648	0.00000	3495.94400
4.12030	0.00000	3495.94400
4.12413	0.00000	3495.94400
4.12795	0.00000	3495.94400
4.13177	0.00000	3495.94400
4.13559	0.00000	3493.10100
4.13942	0.00000	3493.10100
4.14323	0.00000	3493.10100
4.14706	0.00000	3493.10100
4.15089	0.00000	3492.36600
4.15471	0.00000	3492.36600
4.15854	0.00000	3492.36600
4.16236	0.00000	3492.36600
4.16619	0.00000	3492.36600
4.17001	0.00000	3493.34600
4.17383	0.00000	3493.34600
4.17764	0.00000	3493.34600
4.18147	0.00000	3493.34600
4.18530	0.00000	3492.36600
4.18913	0.00000	3492.36600
4.19295	0.00000	3492.36600
4.19678	0.00000	3492.36600
4.20060	0.00000	3492.36600
4.20442	0.00000	3493.34600
4.20824	0.00000	3493.34600
4.21207	0.00000	3493.34600
4.21590	0.00000	3493.34600
4.21973	0.00000	3495.94400
4.22356	0.00000	3495.94400
4.22738	0.00000	3495.94400
4.23121	0.00000	3495.94400
4.23503	0.00000	3495.94400
4.23888	0.00000	3493.83300
4.24277	0.00000	3493.83300
4.24662	0.00000	3493.83300
4.25044	0.00000	3493.83300
4.25428	0.00000	3492.36600
4.25810	0.00000	3492.36600
4.26194	0.00000	3492.36600
4.26575	0.00000	3492.36600
4.26958	0.00000	3492.36600
4.27340	0.00000	3497.15100
4.27722	0.00000	3497.15100
4.28105	0.00000	3497.15100
4.28488	0.00000	3497.15100
4.28876	0.00000	3492.36600
4.29260	0.00000	3492.36600
4.29643	0.00000	3492.36600
4.30027	0.00000	3492.36600
4.30411	0.00000	3492.36600
4.30793	0.00000	3497.15100
4.31176	0.00000	3497.15100
4.31558	0.00000	3497.15100
4.31940	0.00000	3497.15100
4.32323	0.00000	3495.94400
4.32705	0.00000	3495.94400
4.33088	0.00000	3495.94400
4.33470	0.00000	3495.94400
4.33852	0.00000	3495.94400
4.34235	0.00000	3493.83300
4.34619	0.00000	3493.83300
4.35003	0.00000	3493.83300
4.35386	0.00000	3493.83300
4.35769	0.00000	3492.61200
4.36152	0.00000	3492.61200
4.36534	0.00000	3492.61200
4.36917	0.00000	3492.61200
4.37299	0.00000	3492.61200
4.37682	0.00000	3490.27500
4.38064	0.00000	3490.27500
4.38447	0.00000	3490.27500
4.38830	0.00000	3490.27500
4.39212	0.00000	3492.36600
4.39595	0.00000	3492.36600
4.39977	0.00000	3492.36600
4.40359	0.00000	3492.36600
4.40741	0.00000	3492.36600
4.41123	0.00000	3490.52100
4.41505	0.00000	3490.52100
4.41887	0.00000	3490.52100
4.42269	0.00000	3490.52100
4.42651	0.00000	3484.95700
4.43034	0.00000	3484.95700
4.43416	0.00000	3484.95700
4.43800	0.00000	3484.95700
4.44182	0.00000	3484.95700
4.44565	0.00000	3494.31800
4.44949	0.00000	3494.31800
4.45331	0.00000	3494.31800
4.45715	0.00000	3494.31800
4.46098	0.00000	3488.78800
4.46481	0.00000	3488.78800
4.46864	0.00000	3488.78800
4.47246	0.00000	3488.78800
4.47628	0.00000	3488.78800
4.48011	0.00000	3494.31800
4.48393	0.00000	3494.31800
4.48775	0.00000	3494.31800
4.49157	0.00000	3494.31800
4.49539	0.00000	3488.53800
4.49922	0.00000	3488.53800
4.50304	0.00000	3488.53800
4.50687	0.00000	3488.53800
4.51069	0.00000	3488.53800
4.51452	0.00000	3494.07600
4.51834	0.00000	3494.07600
4.52216	0.00000	3494.07600
4.52598	0.00000	3494.07600
4.52979	0.00000	3492.12000
4.53362	0.00000	3492.12000
4.53744	0.00000	3492.12000
4.54127	0.00000	3492.12000
4.54509	0.00000	3492.12000
4.54891	0.00000	3490.52100
4.55274	0.00000	3490.52100
4.55656	0.00000	3490.52100
4.56039	0.00000	3490.52100
4.56422	0.00000	3489.03700
4.56806	0.00000	3489.03700
4.57189	0.00000	3489.03700
4.57571	0.00000	3489.03700
4.57953	0.00000	3489.03700
4.58335	0.00000	3490.76600
4.58717	0.00000	3490.76600
4.59099	0.00000	3490.76600
4.59482	0.00000	3490.76600
4.59864	0.00000	3488.78800
4.60246	0.00000	3488.78800
4.60629	0.00000	3488.78800
4.61011	0.00000	3488.78800
4.61394	0.00000	3488.78800
4.61777	0.00000	3490.27500
4.62159	0.00000	3490.27500
4.62541	0.00000	3490.27500
4.62924	0.00000	3490.27500
4.63306	0.00000	3495.45800
4.63689	0.00000	3495.45800
4.64071	0.00000	3495.45800
4.64453	0.00000	3495.45800
4.64835	0.00000	3495.45800
4.65217	0.00000	3490.27500
4.65600	0.00000	3490.27500
4.65982	0.00000	3490.27500
4.66365	0.00000	3490.27500
4.66748	0.00000	3488.78800
4.67130	0.00000	3488.78800
4.67513	0.00000	3488.78800
4.67896	0.00000	3488.78800
4.68278	0.00000	3488.78800
4.68660	0.00000	3497.39000
4.69042	0.00000	3497.39000
4.69424	0.00000	3497.39000
4.69807	0.00000	3497.39000
4.70189	0.00000	3485.71400
4.70572	0.00000	3485.71400
4.70954	0.00000	3485.71400
4.71337	0.00000	3485.71400
4.71719	0.00000	3485.71400
4.72102	0.00000	3490.76600
4.72484	0.00000	3490.76600
4.72867	0.00000	3490.76600
4.73250	0.00000	3490.76600
4.73632	0.00000	3495.94400
4.74017	0.00000	3495.94400
4.74401	0.00000	3495.94400
4.74784	0.00000	3495.94400
4.75166	0.00000	3495.94400
4.75549	0.00000	3493.83300
4.75932	0.00000	3493.83300
4.76314	0.00000	3493.83300
4.76696	0.00000	3493.83300
4.77078	0.00000	3489.28500
4.77460	0.00000	3489.28500
4.77842	0.00000	3489.28500
4.78225	0.00000	3489.28500
4.78607	0.00000	3489.28500
4.78989	0.00000	3487.21500
4.79371	0.00000	3487.21500
4.79754	0.00000	3487.21500
4.80137	0.00000	3487.21500
4.80519	0.00000	3489.28500
4.80904	0.00000	3489.28500
4.81288	0.00000	3489.28500
4.81670	0.00000	3489.28500
4.82053	0.00000	3489.28500
4.82435	0.00000	3490.76600
4.82817	0.00000	3490.76600
4.83199	0.00000	3490.76600
4.83581	0.00000	3490.76600
4.83964	0.00000	3492.36600
4.84347	0.00000	3492.36600
4.84730	0.00000	3492.36600
4.85112	0.00000	3492.36600
4.85494	0.00000	3492.36600
4.85876	0.00000	3493.83300
4.86258	0.00000	3493.83300
4.86640	0.00000	3493.83300
4.87023	0.00000	3493.83300
4.87406	0.00000	3492.36600
4.87791	0.00000	3492.36600
4.88174	0.00000	3492.36600
4.88556	0.00000	3492.36600
4.88937	0.00000	3492.36600
4.89320	0.00000	3493.83300
4.89702	0.00000	3493.83300
4.90085	0.00000	3493.83300
4.90468	0.00000	3493.83300
4.90851	0.00000	3492.36600
4.91234	0.00000	3492.36600
4.91616	0.00000	3492.36600
4.91998	0.00000	3492.36600
4.92380	0.00000	3492.36600
4.92763	0.00000	3493.34600
4.93145	0.00000	3493.34600
4.93527	0.00000	3493.34600
4.93910	0.00000	3493.34600
4.94293	0.00000	3485.21000
4.94676	0.00000	3485.21000
4.95060	0.00000	3485.21000
4.95442	0.00000	3485.21000
4.95824	0.00000	3485.21000
4.96207	0.00000	3496.91000
4.96590	0.00000	3496.91000
4.96972	0.00000	3496.91000
4.97354	0.00000	3496.91000
4.97736	0.00000	3492.36600
4.98120	0.00000	3492.36600
4.98502	0.00000	3492.36600
4.98884	0.00000	3492.36600
4.99266	0.00000	3492.36600
4.99649	0.00000	3486.21600
5.00079	0.00000	3486.21600
5.00465	0.00000	3486.21600
5.00849	0.00000	3486.21600
5.01233	0.00000	3495.94400
5.01619	0.00000	3495.94400
5.02003	0.00000	3495.94400
5.02387	0.00000	3495.94400
5.02770	0.00000	3495.94400
5.03158	0.00000	3649.86200
5.03543	0.00000	3649.86200
5.03927	0.00000	3649.86200
5.04309	0.00000	3649.86200
5.04694	0.00000	3649.86200
5.05077	0.00000	3905.14900
5.05460	0.00000	3905.14900
5.05843	0.00000	3905.14900
5.06226	0.00000	3905.14900
5.06609	0.00000	3905.14900
5.06992	0.00000	4081.06900
5.07375	0.00000	4081.06900
5.07759	0.00000	4081.06900
5.08143	0.00000	4081.06900
5.08526	0.00000	4081.06900
5.08909	0.00000	4230.37200
5.09294	0.00000	4230.37200
5.09677	0.00000	4230.37200
5.10060	0.00000	4230.37200
5.10445	0.00000	4230.37200
5.10829	0.00000	4326.45600
5.11212	0.00000	4326.45600
5.11595	0.00000	4326.45600
5.11978	0.00000	4326.45600
5.12360	0.00000	4326.45600
5.12742	0.00000	4326.45600
5.13125	0.00000	4410.54500
5.13508	0.00000	4410.54500
5.13892	0.00000	4410.54500
5.14275	0.00000	4410.54500
5.14658	0.00000	4410.54500
5.15042	0.00000	4472.96200
5.15424	0.00000	4472.96200
5.15808	0.00000	4472.96200
5.16191	0.00000	4472.96200
5.16574	0.00000	4472.96200
5.16958	0.00000	4472.96200
5.17340	0.00000	4519.67600
5.17723	0.00000	4519.67600
5.18107	0.00000	4519.67600
5.18491	0.00000	4519.67600
5.18874	0.00000	4519.67600
5.19257	0.00000	4557.69200
5.19640	0.00000	4557.69200
5.20023	0.00000	4557.69200
5.20405	0.00000	4557.69200
5.20789	0.00000	4557.69200
5.21173	0.00000	4557.69200
5.21556	0.00000	4594.74800
5.21940	0.00000	4594.74800
5.22325	0.00000	4594.74800
5.22710	0.00000	4594.74800
5.23095	0.00000	4594.74800
5.23479	0.00000	4619.11100
5.23863	0.00000	4619.11100
5.24247	0.00000	4619.11100
5.24629	0.00000	4619.11100
5.25011	0.00000	4619.11100
5.25394	0.00000	4619.11100
5.25778	0.00000	4638.15800
5.26162	0.00000	4638.15800
5.26545	0.00000	4638.15800
5.26928	0.00000	4638.15800
5.27312	0.00000	4638.15800
5.27695	0.00000	4638.15800
5.28077	0.00000	4653.81700
5.28460	0.00000	4653.81700
5.28845	0.00000	4653.81700
5.29229	0.00000	4653.81700
5.29611	0.00000	4653.81700
5.29994	0.00000	4671.99200
5.30379	0.00000	4671.99200
5.30763	0.00000	4671.99200
5.31146	0.00000	4671.99200
5.31530	0.00000	4671.99200
5.31913	0.00000	4671.99200
5.32297	0.00000	4683.32100
5.32680	0.00000	4683.32100
5.33064	0.00000	4683.32100
5.33448	0.00000	4683.32100
5.33831	0.00000	4683.32100
5.34211	0.00000	4683.32100
5.34595	0.00000	4687.50000
5.34980	0.00000	4687.50000
5.35363	0.00000	4687.50000
5.35746	0.00000	4687.50000
5.36129	0.00000	4687.50000
5.36513	0.00000	4687.50000
5.36895	0.00000	4711.18100
5.37278	0.00000	4711.18100
5.37663	0.00000	4711.18100
5.38047	0.00000	4711.18100
5.38430	0.00000	4711.18100
5.38814	0.00000	4714.04600
5.39199	0.00000	4714.04600
5.39582	0.00000	4714.04600
5.39967	0.00000	4714.04600
5.40351	0.00000	4714.04600
5.40735	0.00000	4714.04600
5.41119	0.00000	4720.78400
5.41502	0.00000	4720.78400
5.41885	0.00000	4720.78400
5.42268	0.00000	4720.78400
5.42650	0.00000	4720.78400
5.43033	0.00000	4720.78400
5.43417	0.00000	4722.11900
5.43800	0.00000	4722.11900
5.44183	0.00000	4722.11900
5.44568	0.00000	4722.11900
5.44950	0.00000	4722.11900
5.45333	0.00000	4722.11900
5.45715	0.00000	4724.88900
5.46098	0.00000	4724.88900
5.46481	0.00000	4724.88900
5.46865	0.00000	4724.88900
5.47250	0.00000	4724.88900
5.47632	0.00000	4720.88300
5.48017	0.00000	4720.88300
5.48400	0.00000	4720.88300
5.48782	0.00000	4720.88300
5.49165	0.00000	4720.88300
5.49548	0.00000	4720.88300
5.49931	0.00000	4724.77900
5.50314	0.00000	4724.77900
5.50698	0.00000	4724.77900
5.51081	0.00000	4724.77900
5.51465	0.00000	4724.77900
5.51848	0.00000	4724.77900
5.52232	0.00000	4739.88900
5.52616	0.00000	4739.88900
5.53000	0.00000	4739.88900
5.53383	0.00000	4739.88900
5.53766	0.00000	4739.88900
5.54150	0.00000	4739.88900
5.54534	0.00000	4733.06300
5.54919	0.00000	4733.06300
5.55302	0.00000	4733.06300
5.55687	0.00000	4733.06300
5.56070	0.00000	4733.06300
5.56455	0.00000	4731.87800
5.56840	0.00000	4731.87800
5.57223	0.00000	4731.87800
5.57607	0.00000	4731.87800
5.57991	0.00000	4731.87800
5.58374	0.00000	4731.87800
5.58759	0.00000	4739.88900
5.59142	0.00000	4739.88900
5.59526	0.00000	4739.88900
5.59910	0.00000	4739.88900
5.60294	0.00000	4739.88900
5.60678	0.00000	4739.88900
5.61063	0.00000	4739.88900
5.61446	0.00000	4739.88900
5.61831	0.00000	4739.88900
5.62211	0.00000	4739.88900
5.62595	0.00000	4739.88900
5.62979	0.00000	4739.88900
5.63363	0.00000	4735.68200
5.63745	0.00000	4735.68200
5.64129	0.00000	4735.68200
5.64513	0.00000	4735.68200
5.64896	0.00000	4735.68200
5.65279	0.00000	4740.19900
5.65661	0.00000	4740.19900
5.66045	0.00000	4740.19900
5.66428	0.00000	4740.19900
5.66811	0.00000	4740.19900
5.67195	0.00000	4740.19900
5.67579	0.00000	4735.96700
5.67962	0.00000	4735.96700
5.68347	0.00000	4735.96700
5.68729	0.00000	4735.96700
5.69113	0.00000	4735.96700
5.69496	0.00000	4735.96700
5.69880	0.00000	4737.13200
5.70264	0.00000	4737.13200
5.70647	0.00000	4737.13200
5.71030	0.00000	4737.13200
5.71411	0.00000	4737.13200
5.71795	0.00000	4737.13200
5.72178	0.00000	4742.64700
5.72561	0.00000	4742.64700
5.72944	0.00000	4742.64700
5.73329	0.00000	4742.64700
5.73712	0.00000	4742.64700
5.74096	0.00000	4742.64700
5.74479	0.00000	4739.88900
5.74863	0.00000	4739.88900
5.75247	0.00000	4739.88900
5.75631	0.00000	4739.88900
5.76015	0.00000	4739.88900
5.76399	0.00000	4744.27600
5.76783	0.00000	4744.27600
5.77167	0.00000	4744.27600
5.77551	0.00000	4744.27600
5.77934	0.00000	4744.27600
5.78318	0.00000	4744.27600
5.78702	0.00000	4737.13200
5.79085	0.00000	4737.13200
5.79468	0.00000	4737.13200
5.79853	0.00000	4737.13200
5.80237	0.00000	4737.13200
5.80619	0.00000	4737.13200
5.81002	0.00000	4734.37500
5.81385	0.00000	4734.37500
5.81769	0.00000	4734.37500
5.82152	0.00000	4734.37500
5.82536	0.00000	4734.37500
5.82919	0.00000	4734.37500
5.83302	0.00000	4742.64700
5.83685	0.00000	4742.64700
5.84069	0.00000	4742.64700
5.84452	0.00000	4742.64700
5.84836	0.00000	4742.64700
5.85219	0.00000	4742.64700
5.85601	0.00000	4738.58600
5.85985	0.00000	4738.58600
5.86370	0.00000	4738.58600
5.86754	0.00000	4738.58600
5.87136	0.00000	4738.58600
5.87519	0.00000	4738.73700
5.87904	0.00000	4738.73700
5.88286	0.00000	4738.73700
5.88672	0.00000	4738.73700
5.89055	0.00000	4738.73700
5.89438	0.00000	4738.73700
5.89821	0.00000	4739.88900
5.90204	0.00000	4739.88900
5.90587	0.00000	4739.88900
5.90970	0.00000	4739.88900
5.91354	0.00000	4739.88900
5.91737	0.00000	4739.88900
5.92119	0.00000	4734.23700
5.92503	0.00000	4734.23700
5.92886	0.00000	4734.23700
5.93268	0.00000	4734.23700
5.93651	0.00000	4734.23700
5.94033	0.00000	4734.23700
5.94416	0.00000	4743.94200
5.94798	0.00000	4743.94200
5.95180	0.00000	4743.94200
5.95562	0.00000	4743.94200
5.95944	0.00000	4743.94200
5.96327	0.00000	4740.19900
5.96711	0.00000	4740.19900
5.97093	0.00000	4740.19900
5.97477	0.00000	4740.19900
5.97860	0.00000	4740.19900
5.98243	0.00000	4740.19900
5.98625	0.00000	4744.10900
5.99006	0.00000	4744.10900
5.99389	0.00000	4744.10900
5.99771	0.00000	4744.10900
6.00153	0.00000	4744.10900
6.00536	0.00000	4744.10900
6.00919	0.00000	4739.88900
6.01302	0.00000	4739.88900
6.01686	0.00000	4739.88900
6.02070	0.00000	4739.88900
6.02454	0.00000	4739.88900
6.02837	0.00000	4739.88900
6.03220	0.00000	4734.37500
6.03604	0.00000	4734.37500
6.03988	0.00000	4734.37500
6.04372	0.00000	4734.37500
6.04755	0.00000	4734.37500
6.05139	0.00000	4734.37500
6.05523	0.00000	4739.88900
6.05906	0.00000	4739.88900
6.06290	0.00000	4739.88900
6.06673	0.00000	4739.88900
6.07057	0.00000	4739.88900
6.07440	0.00000	4735.96700
6.07825	0.00000	4735.96700
6.08208	0.00000	4735.96700
6.08591	0.00000	4735.96700
6.08976	0.00000	4735.96700
6.09360	0.00000	4735.96700
6.09743	0.00000	4734.37500
6.10126	0.00000	4734.37500
6.10509	0.00000	4734.37500
6.10892	0.00000	4734.37500
6.11277	0.00000	4734.37500
6.11660	0.00000	4734.37500
6.12043	0.00000	4735.68200
6.12427	0.00000	4735.68200
6.12811	0.00000	4735.68200
6.13195	0.00000	4735.68200
6.13577	0.00000	4735.68200
6.13961	0.00000	4735.68200
6.14345	0.00000	4735.68200
6.14730	0.00000	4735.68200
6.15113	0.00000	4735.68200
6.15496	0.00000	4735.68200
6.15879	0.00000	4735.68200
6.16262	0.00000	4734.65200
6.16647	0.00000	4734.65200
6.17031	0.00000	4734.65200
6.17411	0.00000	4734.65200
6.17795	0.00000	4734.65200
6.18178	0.00000	4734.65200
6.18561	0.00000	4745.74700
6.18946	0.00000	4745.74700
6.19330	0.00000	4745.74700
6.19713	0.00000	4745.74700
6.20096	0.00000	4745.74700
6.20479	0.00000	4745.74700
6.20862	0.00000	4741.18900
6.21245	0.00000	4741.18900
6.21629	0.00000	4741.18900
6.22013	0.00000	4741.18900
6.22396	0.00000	4741.18900
6.22779	0.00000	4741.18900
6.23162	0.00000	4734.37500
6.23545	0.00000	4734.37500
6.23928	0.00000	4734.37500
6.24312	0.00000	4734.37500
6.24695	0.00000	4734.37500
6.25078	0.00000	4734.37500
6.25461	0.00000	4731.61700
6.25844	0.00000	4731.61700
6.26227	0.00000	4731.61700
6.26610	0.00000	4731.61700
6.26995	0.00000	4731.61700
6.27378	0.00000	4738.73700
6.27762	0.00000	4738.73700
6.28147	0.00000	4738.73700
6.28530	0.00000	4738.73700
6.28913	0.00000	4738.73700
6.29297	0.00000	4738.73700
6.29680	0.00000	4746.69600
6.30064	0.00000	4746.69600
6.30447	0.00000	4746.69600
6.30830	0.00000	4746.69600
6.31213	0.00000	4746.69600
6.31597	0.00000	4746.69600
6.31980	0.00000	4741.18900
6.32364	0.00000	4741.18900
6.32748	0.00000	4741.18900
6.33131	0.00000	4741.18900
6.33515	0.00000	4741.18900
6.33898	0.00000	4741.18900
6.34281	0.00000	4739.88900
6.34664	0.00000	4739.88900
6.35048	0.00000	4739.88900
6.35437	0.00000	4739.88900
6.35822	0.00000	4739.88900
6.36206	0.00000	4741.50700
6.36589	0.00000	4741.50700
6.36974	0.00000	4741.50700
6.37357	0.00000	4741.50700
6.37741	0.00000	4741.50700
6.38125	0.00000	4741.50700
6.38509	0.00000	4751.10600
6.38893	0.00000	4751.10600
6.39276	0.00000	4751.10600
6.39660	0.00000	4751.10600
6.40043	0.00000	4751.10600
6.40429	0.00000	4751.10600
6.40813	0.00000	4745.40400
6.41197	0.00000	4745.40400
6.41581	0.00000	4745.40400
6.41965	0.00000	4745.40400
6.42348	0.00000	4745.40400
6.42732	0.00000	4745.40400
6.43117	0.00000	4743.94200
6.43501	0.00000	4743.94200
6.43885	0.00000	4743.94200
6.44268	0.00000	4743.94200
6.44651	0.00000	4743.94200
6.45034	0.00000	4743.94200
6.45418	0.00000	4742.64700
6.45800	0.00000	4742.64700
6.46184	0.00000	4742.64700
6.46567	0.00000	4742.64700
6.46951	0.00000	4742.64700
6.47334	0.00000	4744.27600
6.47717	0.00000	4744.27600
6.48101	0.00000	4744.27600
6.48485	0.00000	4744.27600
6.48868	0.00000	4744.27600
6.49250	0.00000	4744.27600
6.49633	0.00000	4742.81000
6.50016	0.00000	4742.81000
6.50400	0.00000	4742.81000
6.50784	0.00000	4742.81000
6.51168	0.00000	4742.81000
6.51552	0.00000	4742.81000
6.51935	0.00000	4743.94200
6.52319	0.00000	4743.94200
6.52703	0.00000	4743.94200
6.53086	0.00000	4743.94200
6.53470	0.00000	4743.94200
6.53854	0.00000	4743.94200
6.54239	0.00000	4735.68200
6.54622	0.00000	4735.68200
6.55005	0.00000	4735.68200
6.55388	0.00000	4735.68200
6.55771	0.00000	4735.68200
6.56154	0.00000	4735.68200
6.56537	0.00000	4740.04400
6.56919	0.00000	4740.04400
6.57303	0.00000	4740.04400
6.57686	0.00000	4740.04400
6.58070	0.00000	4740.04400
6.58454	0.00000	4748.52000
6.58837	0.00000	4748.52000
6.59220	0.00000	4748.52000
6.59604	0.00000	4748.52000
6.59988	0.00000	4748.52000
6.60371	0.00000	4748.52000
6.60756	0.00000	4736.98700
6.61139	0.00000	4736.98700
6.61522	0.00000	4736.98700
6.61907	0.00000	4736.98700
6.62290	0.00000	4736.98700
6.62675	0.00000	4736.98700
6.63058	0.00000	4741.18900
6.63442	0.00000	4741.18900
6.63826	0.00000	4741.18900
6.64210	0.00000	4741.18900
6.64594	0.00000	4741.18900
6.64978	0.00000	4741.18900
6.65362	0.00000	4743.94200
6.65746	0.00000	4743.94200
6.66130	0.00000	4743.94200
6.66513	0.00000	4743.94200
6.66896	0.00000	4743.94200
6.67280	0.00000	4747.04600
6.67663	0.00000	4747.04600
6.68046	0.00000	4747.04600
6.68429	0.00000	4747.04600
6.68812	0.00000	4747.04600
6.69195	0.00000	4747.04600
6.69580	0.00000	4740.04400
6.69963	0.00000	4740.04400
6.70347	0.00000	4740.04400
6.70731	0.00000	4740.04400
6.71114	0.00000	4740.04400
6.71499	0.00000	4740.04400
6.71882	0.00000	4750.91900
6.72266	0.00000	4750.91900
6.72650	0.00000	4750.91900
6.73035	0.00000	4750.91900
6.73418	0.00000	4750.91900
6.73801	0.00000	4750.91900
6.74184	0.00000	4741.18900
6.74568	0.00000	4741.18900
6.74952	0.00000	4741.18900
6.75335	0.00000	4741.18900
6.75719	0.00000	4741.18900
6.76102	0.00000	4741.18900
6.76484	0.00000	4739.88900
6.76868	0.00000	4739.88900
6.77254	0.00000	4739.88900
6.77637	0.00000	4739.88900
6.78021	0.00000	4739.88900
6.78403	0.00000	4745.74700
6.78788	0.00000	4745.74700
6.79171	0.00000	4745.74700
6.79555	0.00000	4745.74700
6.79939	0.00000	4745.74700
6.80321	0.00000	4745.74700
6.80705	0.00000	4736.98700
6.81088	0.00000	4736.98700
6.81471	0.00000	4736.98700
6.81855	0.00000	4736.98700
6.82239	0.00000	4736.98700
6.82623	0.00000	4736.98700
6.83006	0.00000	4745.40400
6.83390	0.00000	4745.40400
6.83774	0.00000	4745.40400
6.84157	0.00000	4745.40400
6.84540	0.00000	4745.40400
6.84924	0.00000	4745.40400
6.85307	0.00000	4745.40400
6.85690	0.00000	4745.40400
6.86074	0.00000	4745.40400
6.86458	0.00000	4745.40400
6.86841	0.00000	4745.40400
6.87224	0.00000	4747.04600
6.87606	0.00000	4747.04600
6.87989	0.00000	4747.04600
6.88372	0.00000	4747.04600
6.88757	0.00000	4747.04600
6.89139	0.00000	4747.04600
6.89522	0.00000	4741.50700
6.89906	0.00000	4741.50700
6.90289	0.00000	4741.50700
6.90673	0.00000	4741.50700
6.91056	0.00000	4741.50700
6.91439	0.00000	4741.50700
6.91822	0.00000	4738.43600
6.92206	0.00000	4738.43600
6.92591	0.00000	4738.43600
6.92975	0.00000	4738.43600
6.93358	0.00000	4738.43600
6.93741	0.00000	4738.43600
6.94125	0.00000	4747.98400
6.94508	0.00000	4747.98400
6.94891	0.00000	4747.98400
6.95275	0.00000	4747.98400
6.95659	0.00000	4747.98400
6.96042	0.00000	4747.98400
6.96425	0.00000	4743.94200
6.96809	0.00000	4743.94200
6.97193	0.00000	4743.94200
6.97576	0.00000	4743.94200
6.97960	0.00000	4743.94200
6.98343	0.00000	4741.50700
6.98727	0.00000	4741.50700
6.99111	0.00000	4741.50700
6.99496	0.00000	4741.50700
6.99879	0.00000	4741.50700
7.00263	0.00000	4741.50700
7.00646	0.00000	4742.64700
7.01029	0.00000	4742.64700
7.01411	0.00000	4742.64700
7.01795	0.00000	4742.64700
7.02177	0.00000	4742.64700
7.02560	0.00000	4742.64700
7.02944	0.00000	4745.23400
7.03329	0.00000	4745.23400
7.03713	0.00000	4745.23400
7.04096	0.00000	4745.23400
7.04479	0.00000	4745.23400
7.04863	0.00000	4745.23400
7.05247	0.00000	4741.18900
7.05630	0.00000	4741.18900
7.06013	0.00000	4741.18900
7.06397	0.00000	4741.18900
7.06780	0.00000	4741.18900
7.07164	0.00000	4741.18900
7.07547	0.00000	4739.88900
7.07930	0.00000	4739.88900
7.08313	0.00000	4739.88900
7.08695	0.00000	4739.88900
7.09079	0.00000	4739.88900
7.09463	0.00000	4745.74700
7.09847	0.00000	4745.74700
7.10230	0.00000	4745.74700
7.10611	0.00000	4745.74700
7.10994	0.00000	4745.74700
7.11377	0.00000	4745.74700
7.11760	0.00000	4737.13200
7.12144	0.00000	4737.13200
7.12527	0.00000	4737.13200
7.12910	0.00000	4737.13200
7.13293	0.00000	4737.13200
7.13677	0.00000	4737.13200
7.14061	0.00000	4738.43600
7.14444	0.00000	4738.43600
7.14828	0.00000	4738.43600
7.15211	0.00000	4738.43600
7.15594	0.00000	4738.43600
7.15977	0.00000	4738.43600
7.16362	0.00000	4739.88900
7.16744	0.00000	4739.88900
7.17128	0.00000	4739.88900
7.17510	0.00000	4739.88900
7.17893	0.00000	4739.88900
7.18276	0.00000	4751.29400
7.18659	0.00000	4751.29400
7.19042	0.00000	4751.29400
7.19426	0.00000	4751.29400
7.19810	0.00000	4751.29400
7.20194	0.00000	4751.29400
7.20577	0.00000	4747.04600
7.20960	0.00000	4747.04600
7.21343	0.00000	4747.04600
7.21728	0.00000	4747.04600
7.22111	0.00000	4747.04600
7.22495	0.00000	4747.04600
7.22878	0.00000	4741.18900
7.23262	0.00000	4741.18900
7.23645	0.00000	4741.18900
7.24029	0.00000	4741.18900
7.24412	0.00000	4741.18900
7.24795	0.00000	4741.18900
7.25180	0.00000	4735.68200
7.25563	0.00000	4735.68200
7.25946	0.00000	4735.68200
7.26330	0.00000	4735.68200
7.26713	0.00000	4735.68200
7.27097	0.00000	4735.68200
7.27481	0.00000	4738.43600
7.27865	0.00000	4738.43600
7.28249	0.00000	4738.43600
7.28632	0.00000	4738.43600
7.29011	0.00000	4738.43600
7.29396	0.00000	4741.50700
7.29779	0.00000	4741.50700
7.30163	0.00000	4741.50700
7.30547	0.00000	4741.50700
7.30930	0.00000	4741.50700
7.31315	0.00000	4741.50700
7.31698	0.00000	4738.58600
7.32081	0.00000	4738.58600
7.32464	0.00000	4738.58600
7.32848	0.00000	4738.58600
7.33232	0.00000	4738.58600
7.33615	0.00000	4738.58600
7.33998	0.00000	4739.88900
7.34382	0.00000	4739.88900
7.34766	0.00000	4739.88900
7.35150	0.00000	4739.88900
7.35533	0.00000	4739.88900
7.35917	0.00000	4739.88900
7.36300	0.00000	4743.94200
7.36685	0.00000	4743.94200
7.37069	0.00000	4743.94200
7.37452	0.00000	4743.94200
7.37836	0.00000	4743.94200
7.38219	0.00000	4743.94200
7.38602	0.00000	4746.69600
7.38985	0.00000	4746.69600
7.39369	0.00000	4746.69600
7.39752	0.00000	4746.69600
7.40134	0.00000	4746.69600
7.40518	0.00000	4742.97300
7.40903	0.00000	4742.97300
7.41287	0.00000	4742.97300
7.41671	0.00000	4742.97300
7.42054	0.00000	4742.97300
7.42438	0.00000	4742.97300
7.42821	0.00000	4737.13200
7.43204	0.00000	4737.13200
7.43589	0.00000	4737.13200
7.43973	0.00000	4737.13200
7.44357	0.00000	4737.13200
7.44740	0.00000	4737.13200
7.45123	0.00000	4742.64700
7.45506	0.00000	4742.64700
7.45890	0.00000	4742.64700
7.46273	0.00000	4742.64700
7.46655	0.00000	4742.64700
7.47039	0.00000	4742.64700
7.47422	0.00000	4738.43600
7.47806	0.00000	4738.43600
7.48190	0.00000	4738.43600
7.48573	0.00000	4738.43600
7.48956	0.00000	4738.43600
7.49340	0.00000	4740.04400
7.49724	0.00000	4740.04400
7.50108	0.00000	4740.04400
7.50491	0.00000	4740.04400
7.50875	0.00000	4740.04400
7.51258	0.00000	4740.04400
7.51641	0.00000	4737.27900
7.52025	0.00000	4737.27900
7.52409	0.00000	4737.27900
7.52793	0.00000	4737.27900
7.53176	0.00000	4737.27900
7.53560	0.00000	4737.27900
7.53944	0.00000	4737.13200
7.54328	0.00000	4737.13200
7.54710	0.00000	4737.13200
7.55094	0.00000	4737.13200
7.55477	0.00000	4737.13200
7.55862	0.00000	4737.13200
7.56245	0.00000	4743.94200
7.56629	0.00000	4743.94200
7.57011	0.00000	4743.94200
7.57394	0.00000	4743.94200
7.57777	0.00000	4743.94200
7.58161	0.00000	4743.94200
7.58543	0.00000	4733.06300
7.58927	0.00000	4733.06300
7.59311	0.00000	4733.06300
7.59695	0.00000	4733.06300
7.60078	0.00000	4733.06300
7.60461	0.00000	4737.42600
7.60844	0.00000	4737.42600
7.61228	0.00000	4737.42600
7.61612	0.00000	4737.42600
7.61996	0.00000	4737.42600
7.62380	0.00000	4737.42600
7.62763	0.00000	4745.40400
7.63146	0.00000	4745.40400
7.63530	0.00000	4745.40400
7.63913	0.00000	4745.40400
7.64298	0.00000	4745.40400
7.64682	0.00000	4745.40400
7.65066	0.00000	4731.48800
7.65450	0.00000	4731.48800
7.65832	0.00000	4731.48800
7.66211	0.00000	4731.48800
7.66595	0.00000	4731.48800
7.66979	0.00000	4731.48800
7.67363	0.00000	4742.64700
7.67746	0.00000	4742.64700
7.68131	0.00000	4742.64700
7.68515	0.00000	4742.64700
7.68898	0.00000	4742.64700
7.69281	0.00000	4734.65200
7.69665	0.00000	4734.65200
7.70049	0.00000	4734.65200
7.70433	0.00000	4734.65200
7.70816	0.00000	4734.65200
7.71200	0.00000	4734.65200
7.71583	0.00000	4744.27600
7.71967	0.00000	4744.27600
7.72352	0.00000	4744.27600
7.72734	0.00000	4744.27600
7.73117	0.00000	4744.27600
7.73500	0.00000	4744.27600
7.73883	0.00000	4745.40400
7.74267	0.00000	4745.40400
7.74651	0.00000	4745.40400
7.75035	0.00000	4745.40400
7.75419	0.00000	4745.40400
7.75803	0.00000	4745.40400
7.76186	0.00000	4745.40400
7.76569	0.00000	4745.40400
7.76952	0.00000	4745.40400
7.77336	0.00000	4745.40400
7.77720	0.00000	4745.40400
7.78104	0.00000	4745.40400
7.78488	0.00000	4739.88900
7.78871	0.00000	4739.88900
7.79255	0.00000	4739.88900
7.79638	0.00000	4739.88900
7.80021	0.00000	4739.88900
7.80403	0.00000	4731.87800
7.80789	0.00000	4731.87800
7.81172	0.00000	4731.87800
7.81556	0.00000	4731.87800
7.81940	0.00000	4731.87800
7.82323	0.00000	4731.87800
7.82705	0.00000	4739.88900
7.83088	0.00000	4739.88900
7.83473	0.00000	4739.88900
7.83857	0.00000	4739.88900
7.84240	0.00000	4739.88900
7.84623	0.00000	4739.88900
7.85006	0.00000	4743.94200
7.85390	0.00000	4743.94200
7.85773	0.00000	4743.94200
7.86157	0.00000	4743.94200
7.86554	0.00000	4743.94200
7.87139	0.00000	4731.87800
7.87530	0.00000	4731.87800
7.87917	0.00000	4731.87800
7.88302	0.00000	4731.87800
7.88686	0.00000	4731.87800
7.89071	0.00000	4731.87800
7.89454	0.00000	4743.94200
7.89837	0.00000	4743.94200
7.90221	0.00000	4743.94200
7.90606	0.00000	4743.94200
7.90989	0.00000	4743.94200
7.91372	0.00000	4743.94200
7.91756	0.00000	4741.18900
7.92139	0.00000	4741.18900
7.92524	0.00000	4741.18900
7.92908	0.00000	4741.18900
7.93296	0.00000	4741.18900
7.93682	0.00000	4734.65200
7.94067	0.00000	4734.65200
7.94450	0.00000	4734.65200
7.94833	0.00000	4734.65200
7.95218	0.00000	4734.65200
7.95600	0.00000	4734.65200
7.95984	0.00000	4742.64700
7.96369	0.00000	4742.64700
7.96752	0.00000	4742.64700
7.97136	0.00000	4742.64700
7.97519	0.00000	4742.64700
7.97902	0.00000	4742.64700
7.98285	0.00000	4737.13200
7.98668	0.00000	4737.13200
7.99051	0.00000	4737.13200
7.99434	0.00000	4737.13200
7.99817	0.00000	4737.13200
8.00201	0.00000	4737.13200
8.00584	0.00000	4739.88900
8.00967	0.00000	4739.88900
8.01350	0.00000	4739.88900
8.01733	0.00000	4739.88900
8.02117	0.00000	4739.88900
8.02499	0.00000	4739.88900
8.02881	0.00000	4741.50700
8.03264	0.00000	4741.50700
8.03647	0.00000	4741.50700
8.04030	0.00000	4741.50700
8.04414	0.00000	4741.50700
8.04797	0.00000	4737.42600
8.05181	0.00000	4737.42600
8.05564	0.00000	4737.42600
8.05949	0.00000	4737.42600
8.06334	0.00000	4737.42600
8.06717	0.00000	4737.42600
8.07101	0.00000	4738.43600
8.07485	0.00000	4738.43600
8.07869	0.00000	4738.43600
8.08252	0.00000	4738.43600
8.08636	0.00000	4738.43600
8.09020	0.00000	4738.43600
8.09403	0.00000	4734.37500
8.09787	0.00000	4734.37500
8.10170	0.00000	4734.37500
8.10554	0.00000	4734.37500
8.10938	0.00000	4734.37500
8.11321	0.00000	4734.37500
8.11705	0.00000	4742.64700
8.12089	0.00000	4742.64700
8.12473	0.00000	4742.64700
8.12856	0.00000	4742.64700
8.13240	0.00000	4742.64700
8.13624	0.00000	4738.73700
8.14008	0.00000	4738.73700
8.14392	0.00000	4738.73700
8.14776	0.00000	4738.73700
8.15159	0.00000	4738.73700
8.15543	0.00000	4738.73700
8.15927	0.00000	4734.51300
8.16310	0.00000	4734.51300
8.16694	0.00000	4734.51300
8.17078	0.00000	4734.51300
8.17462	0.00000	4734.51300
8.17845	0.00000	4734.51300
8.18227	0.00000	4738.58600
8.18611	0.00000	4738.58600
8.18995	0.00000	4738.58600
8.19378	0.00000	4738.58600
8.19761	0.00000	4738.58600
8.20144	0.00000	4738.58600
8.20528	0.00000	4734.37500
8.20911	0.00000	4734.37500
8.21294	0.00000	4734.37500
8.21676	0.00000	4734.37500
8.22060	0.00000	4734.37500
8.22444	0.00000	4729.10500
8.22826	0.00000	4729.10500
8.23209	0.00000	4729.10500
8.23593	0.00000	4729.10500
8.23976	0.00000	4729.10500
8.24361	0.00000	4729.10500
8.24745	0.00000	4735.96700
8.25130	0.00000	4735.96700
8.25513	0.00000	4735.96700
8.25896	0.00000	4735.96700
8.26279	0.00000	4735.96700
8.26663	0.00000	4735.96700
8.27046	0.00000	4734.37500
8.27430	0.00000	4734.37500
8.27811	0.00000	4734.37500
8.28195	0.00000	4734.37500
8.28579	0.00000	4734.37500
8.28966	0.00000	4734.37500
8.29350	0.00000	4739.88900
8.29734	0.00000	4739.88900
8.30119	0.00000	4739.88900
8.30503	0.00000	4739.88900
8.30888	0.00000	4739.88900
8.31271	0.00000	4739.88900
8.31654	0.00000	4737.13200
8.32039	0.00000	4737.13200
8.32423	0.00000	4737.13200
8.32806	0.00000	4737.13200
8.33190	0.00000	4737.13200
8.33573	0.00000	4736.11100
8.33957	0.00000	4736.11100
8.34342	0.00000	4736.11100
8.34728	0.00000	4736.11100
8.35113	0.00000	4736.11100
8.35497	0.00000	4736.11100
8.35882	0.00000	4731.61700
8.36266	0.00000	4731.61700
8.36652	0.00000	4731.61700
8.37035	0.00000	4731.61700
8.37419	0.00000	4731.61700
8.37804	0.00000	4731.61700
8.38188	0.00000	4738.43600
8.38572	0.00000	4738.43600
8.38955	0.00000	4738.43600
8.39338	0.00000	4738.43600
8.39721	0.00000	4738.43600
8.40105	0.00000	4738.43600
8.40489	0.00000	4728.86000
8.40872	0.00000	4728.86000
8.41256	0.00000	4728.86000
8.41640	0.00000	4728.86000
8.42024	0.00000	4728.86000
8.42407	0.00000	4734.65200
8.42790	0.00000	4734.65200
8.43174	0.00000	4734.65200
8.43558	0.00000	4734.65200
8.43942	0.00000	4734.65200
8.44326	0.00000	4734.65200
8.44709	0.00000	4734.51300
8.45093	0.00000	4734.51300
8.45477	0.00000	4734.51300
8.45860	0.00000	4734.51300
8.46242	0.00000	4734.51300
8.46626	0.00000	4734.51300
8.47011	0.00000	4735.68200
8.47395	0.00000	4735.68200
8.47777	0.00000	4735.68200
8.48162	0.00000	4735.68200
8.48545	0.00000	4735.68200
8.48928	0.00000	4735.68200
8.49311	0.00000	4728.86000
8.49696	0.00000	4728.86000
8.50079	0.00000	4728.86000
8.50463	0.00000	4728.86000
8.50846	0.00000	4728.86000
8.51230	0.00000	4728.86000
8.51613	0.00000	4735.96700
8.51996	0.00000	4735.96700
8.52380	0.00000	4735.96700
8.52763	0.00000	4735.96700
8.53147	0.00000	4735.96700
8.53530	0.00000	4741.66700
8.53914	0.00000	4741.66700
8.54298	0.00000	4741.66700
8.54681	0.00000	4741.66700
8.55064	0.00000	4741.66700
8.55447	0.00000	4741.66700
8.55830	0.00000	4738.58600
8.56211	0.00000	4738.58600
8.56594	0.00000	4738.58600
8.56978	0.00000	4738.58600
8.57362	0.00000	4738.58600
8.57747	0.00000	4738.58600
8.58131	0.00000	4742.64700
8.58514	0.00000	4742.64700
8.58897	0.00000	4742.64700
8.59280	0.00000	4742.64700
8.59664	0.00000	4742.64700
8.60047	0.00000	4742.64700
8.60430	0.00000	4737.13200
8.60814	0.00000	4737.13200
8.61198	0.00000	4737.13200
8.61580	0.00000	4737.13200
8.61966	0.00000	4737.13200
8.62349	0.00000	4745.74700
8.62734	0.00000	4745.74700
8.63117	0.00000	4745.74700
8.63501	0.00000	4745.74700
8.63885	0.00000	4745.74700
8.64269	0.00000	4745.74700
8.64652	0.00000	4731.74800
8.65035	0.00000	4731.74800
8.65418	0.00000	4731.74800
8.65802	0.00000	4731.74800
8.66185	0.00000	4731.74800
8.66569	0.00000	4731.74800
8.66953	0.00000	4728.86000
8.67336	0.00000	4728.86000
8.67720	0.00000	4728.86000
8.68102	0.00000	4728.86000
8.68486	0.00000	4728.86000
8.68869	0.00000	4728.86000
8.69252	0.00000	4722.01700
8.69637	0.00000	4722.01700
8.70021	0.00000	4722.01700
8.70405	0.00000	4722.01700
8.70788	0.00000	4722.01700
8.71173	0.00000	4737.42600
8.71556	0.00000	4737.42600
8.71941	0.00000	4737.42600
8.72325	0.00000	4737.42600
8.72708	0.00000	4737.42600
8.73091	0.00000	4737.42600
8.73475	0.00000	4740.19900
8.73858	0.00000	4740.19900
8.74242	0.00000	4740.19900
8.74625	0.00000	4740.19900
8.75010	0.00000	4740.19900
8.75394	0.00000	4740.19900
8.75777	0.00000	4737.13200
8.76161	0.00000	4737.13200
8.76544	0.00000	4737.13200
8.76928	0.00000	4737.13200
8.77312	0.00000	4737.13200
8.77696	0.00000	4737.13200
8.78080	0.00000	4724.77900
8.78463	0.00000	4724.77900
8.78847	0.00000	4724.77900
8.79230	0.00000	4724.77900
8.79613	0.00000	4724.77900
8.79996	0.00000	4724.77900
8.80379	0.00000	4731.74800
8.80762	0.00000	4731.74800
8.81146	0.00000	4731.74800
8.81529	0.00000	4731.74800
8.81913	0.00000	4731.74800
8.82296	0.00000	4738.88800
8.82680	0.00000	4738.88800
8.83064	0.00000	4738.88800
8.83448	0.00000	4738.88800
8.83832	0.00000	4738.88800
8.84211	0.00000	4738.88800
8.84594	0.00000	4731.61700
8.84978	0.00000	4731.61700
8.85362	0.00000	4731.61700
8.85745	0.00000	4731.61700
8.86129	0.00000	4731.61700
8.86514	0.00000	4731.61700
8.86897	0.00000	4730.30200
8.87281	0.00000	4730.30200
8.87664	0.00000	4730.30200
8.88047	0.00000	4730.30200
8.88430	0.00000	4730.30200
8.88813	0.00000	4730.30200
8.89197	0.00000	4734.37500
8.89582	0.00000	4734.37500
8.89966	0.00000	4734.37500
8.90350	0.00000	4734.37500
8.90733	0.00000	4734.37500
8.91116	0.00000	4737.42600
8.91500	0.00000	4737.42600
8.91884	0.00000	4737.42600
8.92269	0.00000	4737.42600
8.92652	0.00000	4737.42600
8.93037	0.00000	4737.42600
8.93419	0.00000	4733.19800
8.93803	0.00000	4733.19800
8.94186	0.00000	4733.19800
8.94570	0.00000	4733.19800
8.94955	0.00000	4733.19800
8.95339	0.00000	4733.19800
8.95723	0.00000	4737.13200
8.96107	0.00000	4737.13200
8.96490	0.00000	4737.13200
8.96874	0.00000	4737.13200
8.97257	0.00000	4737.13200
8.97642	0.00000	4737.13200
8.98024	0.00000	4734.37500
8.98408	0.00000	4734.37500
8.98791	0.00000	4734.37500
8.99175	0.00000	4734.37500
8.99559	0.00000	4734.37500
8.99942	0.00000	4738.88800
9.00324	0.00000	4738.88800
9.00708	0.00000	4738.88800
9.01092	0.00000	4738.88800
9.01476	0.00000	4738.88800
9.01859	0.00000	4738.88800
9.02243	0.00000	4734.65200
9.02628	0.00000	4734.65200
9.03011	0.00000	4734.65200
9.03394	0.00000	4734.65200
9.03777	0.00000	4734.65200
9.04161	0.00000	4734.65200
9.04545	0.00000	4737.27900
9.04930	0.00000	4737.27900
9.05314	0.00000	4737.27900
9.05698	0.00000	4737.27900
9.06082	0.00000	4737.27900
9.06465	0.00000	4737.27900
9.06848	0.00000	4731.61700
9.07232	0.00000	4731.61700
9.07616	0.00000	4731.61700
9.07999	0.00000	4731.61700
9.08382	0.00000	4731.61700
9.08767	0.00000	4731.61700
9.09149	0.00000	4735.96700
9.09532	0.00000	4735.96700
9.09916	0.00000	4735.96700
9.10301	0.00000	4735.96700
9.10683	0.00000	4735.96700
9.11067	0.00000	4741.66700
9.11450	0.00000	4741.66700
9.11834	0.00000	4741.66700
9.12218	0.00000	4741.66700
9.12601	0.00000	4741.66700
9.12987	0.00000	4741.66700
9.13370	0.00000	4731.61700
9.13754	0.00000	4731.61700
9.14137	0.00000	4731.61700
9.14522	0.00000	4731.61700
9.14905	0.00000	4731.61700
9.15290	0.00000	4731.61700
9.15674	0.00000	4732.92900
9.16058	0.00000	4732.92900
9.16441	0.00000	4732.92900
9.16826	0.00000	4732.92900
9.17210	0.00000	4732.92900
9.17594	0.00000	4732.92900
9.17977	0.00000	4727.54000
9.18362	0.00000	4727.54000
9.18746	0.00000	4727.54000
9.19130	0.00000	4727.54000
9.19514	0.00000	4727.54000
9.19898	0.00000	4740.19900
9.20283	0.00000	4740.19900
9.20667	0.00000	4740.19900
9.21051	0.00000	4740.19900
9.21435	0.00000	4740.19900
9.21818	0.00000	4740.19900
9.22203	0.00000	4737.13200
9.22586	0.00000	4737.13200
9.22968	0.00000	4737.13200
9.23352	0.00000	4737.13200
9.23735	0.00000	4737.13200
9.24119	0.00000	4737.13200
9.24503	0.00000	4738.43600
9.24886	0.00000	4738.43600
9.25270	0.00000	4738.43600
9.25654	0.00000	4738.43600
9.26037	0.00000	4738.43600
9.26420	0.00000	4738.43600
9.26803	0.00000	4727.54000
9.27187	0.00000	4727.54000
9.27571	0.00000	4727.54000
9.27954	0.00000	4727.54000
9.28338	0.00000	4727.54000
9.28721	0.00000	4734.65200
9.29104	0.00000	4734.65200
9.29489	0.00000	4734.65200
9.29873	0.00000	4734.65200
9.30255	0.00000	4734.65200
9.30638	0.00000	4734.65200
9.31022	0.00000	4734.65200
9.31405	0.00000	4734.65200
9.31788	0.00000	4734.65200
9.32172	0.00000	4734.65200
9.32556	0.00000	4734.65200
9.32940	0.00000	4734.65200
9.33324	0.00000	4728.86000
9.33707	0.00000	4728.86000
9.34091	0.00000	4728.86000
9.34474	0.00000	4728.86000
9.34858	0.00000	4728.86000
9.35242	0.00000	4728.86000
9.35625	0.00000	4734.37500
9.36009	0.00000	4734.37500
9.36393	0.00000	4734.37500
9.36776	0.00000	4734.37500
9.37158	0.00000	4734.37500
9.37542	0.00000	4734.37500
9.37925	0.00000	4735.82400
9.38308	0.00000	4735.82400
9.38692	0.00000	4735.82400
9.39075	0.00000	4735.82400
9.39458	0.00000	4735.82400
9.39842	0.00000	4733.33300
9.40228	0.00000	4733.33300
9.40611	0.00000	4733.33300
9.40995	0.00000	4733.33300
9.41378	0.00000	4733.33300
9.41762	0.00000	4733.33300
9.42145	0.00000	4734.37500
9.42530	0.00000	4734.37500
9.42914	0.00000	4734.37500
9.43300	0.00000	4734.37500
9.43684	0.00000	4734.37500
9.44067	0.00000	4734.37500
9.44450	0.00000	4731.61700
9.44834	0.00000	4731.61700
9.45218	0.00000	4731.61700
9.45603	0.00000	4731.61700
9.45986	0.00000	4731.61700
9.46371	0.00000	4731.61700
9.46755	0.00000	4741.18900
9.47139	0.00000	4741.18900
9.47522	0.00000	4741.18900
9.47906	0.00000	4741.18900
9.48290	0.00000	4741.18900
9.48675	0.00000	4731.87800
9.49060	0.00000	4731.87800
9.49443	0.00000	4731.87800
9.49826	0.00000	4731.87800
9.50211	0.00000	4731.87800
9.50594	0.00000	4731.87800
9.50978	0.00000	4731.74800
9.51361	0.00000	4731.74800
9.51744	0.00000	4731.74800
9.52129	0.00000	4731.74800
9.52513	0.00000	4731.74800
9.52897	0.00000	4731.74800
9.53280	0.00000	4742.64700
9.53663	0.00000	4742.64700
9.54047	0.00000	4742.64700
9.54430	0.00000	4742.64700
9.54814	0.00000	4742.64700
9.55198	0.00000	4742.64700
9.55581	0.00000	4735.68200
9.55964	0.00000	4735.68200
9.56347	0.00000	4735.68200
9.56731	0.00000	4735.68200
9.57114	0.00000	4735.68200
9.57498	0.00000	4735.68200
9.57881	0.00000	4744.10900
9.58263	0.00000	4744.10900
9.58647	0.00000	4744.10900
9.59030	0.00000	4744.10900
9.59411	0.00000	4744.10900
9.59796	0.00000	4734.65200
9.60181	0.00000	4734.65200
9.60564	0.00000	4734.65200
9.60947	0.00000	4734.65200
9.61331	0.00000	4734.65200
9.61715	0.00000	4734.65200
9.62101	0.00000	4735.68200
9.62484	0.00000	4735.68200
9.62868	0.00000	4735.68200
9.63252	0.00000	4735.68200
9.63637	0.00000	4735.68200
9.64019	0.00000	4735.68200
9.64403	0.00000	4735.82400
9.64787	0.00000	4735.82400
9.65171	0.00000	4735.82400
9.65554	0.00000	4735.82400
9.65937	0.00000	4735.82400
9.66321	0.00000	4735.82400
9.66704	0.00000	4734.37500
9.67088	0.00000	4734.37500
9.67471	0.00000	4734.37500
9.67855	0.00000	4734.37500
9.68239	0.00000	4734.37500
9.68623	0.00000	4740.19900
9.69005	0.00000	4740.19900
9.69390	0.00000	4740.19900
9.69773	0.00000	4740.19900
9.70157	0.00000	4740.19900
9.70541	0.00000	4740.19900
9.70924	0.00000	4742.81000
9.71307	0.00000	4742.81000
9.71690	0.00000	4742.81000
9.72074	0.00000	4742.81000
9.72458	0.00000	4742.81000
9.72841	0.00000	4742.81000
9.73225	0.00000	4735.68200
9.73609	0.00000	4735.68200
9.73993	0.00000	4735.68200
9.74376	0.00000	4735.68200
9.74759	0.00000	4735.68200
9.75142	0.00000	4735.68200
9.75526	0.00000	4730.30200
9.75910	0.00000	4730.30200
9.76293	0.00000	4730.30200
9.76677	0.00000	4730.30200
9.77062	0.00000	4730.30200
9.77446	0.00000	4730.30200
9.77828	0.00000	4742.97300
9.78211	0.00000	4742.97300
9.78595	0.00000	4742.97300
9.78979	0.00000	4742.97300
9.79363	0.00000	4742.97300
9.79746	0.00000	4737.42600
9.80129	0.00000	4737.42600
9.80513	0.00000	4737.42600
9.80897	0.00000	4737.42600
9.81280	0.00000	4737.42600
9.81663	0.00000	4737.42600
9.82047	0.00000	4726.10300
9.82429	0.00000	4726.10300
9.82813	0.00000	4726.10300
9.83196	0.00000	4726.10300
9.83579	0.00000	4726.10300
9.83963	0.00000	4726.10300
9.84347	0.00000	4734.37500
9.84731	0.00000	4734.37500
9.85114	0.00000	4734.37500
9.85499	0.00000	4734.37500
9.85882	0.00000	4734.37500
9.86265	0.00000	4734.37500
9.86648	0.00000	4737.13200
9.87031	0.00000	4737.13200
9.87411	0.00000	4737.13200
9.87795	0.00000	4737.13200
9.88179	0.00000	4737.13200
9.88563	0.00000	4731.87800
9.88948	0.00000	4731.87800
9.89331	0.00000	4731.87800
9.89714	0.00000	4731.87800
9.90098	0.00000	4731.87800
9.90482	0.00000	4731.87800
9.90866	0.00000	4734.37500
9.91249	0.00000	4734.37500
9.91634	0.00000	4734.37500
9.92017	0.00000	4734.37500
9.92400	0.00000	4734.37500
9.92783	0.00000	4734.37500
9.93167	0.00000	4734.37500
9.93550	0.00000	4734.37500
9.93933	0.00000	4734.37500
9.94317	0.00000	4734.37500
9.94700	0.00000	4734.37500
9.95084	0.00000	4734.37500
9.95468	0.00000	4739.88900
9.95852	0.00000	4739.88900
9.96235	0.00000	4739.88900
9.96618	0.00000	4739.88900
9.97002	0.00000	4739.88900
9.97385	0.00000	4731.87800
9.97767	0.00000	4731.87800
9.98151	0.00000	4731.87800
9.98534	0.00000	4731.87800
9.98917	0.00000	4731.87800
9.99301	0.00000	4731.87800
9.99684	0.00000	4738.88800
