Time (s)   Thrust (N)   RPM
0.00028	0.00000	4096.10500
0.00417	0.00000	4096.10500
0.00802	0.00000	4097.63900
0.01187	0.00000	4097.63900
0.01572	0.00000	4097.63900
0.01956	0.00000	4097.63900
0.02343	0.00000	4097.63900
0.02730	0.00000	4063.56700
0.03114	0.00000	4063.56700
0.03497	0.00000	4063.56700
0.03879	0.00000	4063.56700
0.04262	0.00000	4063.56700
0.04644	0.00000	3980.32000
0.05027	0.00000	3980.32000
0.05410	0.00000	3980.32000
0.05793	0.00000	3980.32000
0.06176	0.00000	3980.32000
0.06558	0.00000	3933.56600
0.06941	0.00000	3933.56600
0.07324	0.00000	3933.56600
0.07707	0.00000	3933.56600
0.08090	0.00000	3880.00000
0.08474	0.00000	3880.00000
0.08856	0.00000	3880.00000
0.09238	0.00000	3880.00000
0.09622	0.00000	3880.00000
0.10004	0.00000	3840.48200
0.10386	0.00000	3840.48200
0.10767	0.00000	3840.48200
0.11150	0.00000	3840.48200
0.11532	0.00000	3840.48200
0.11915	0.00000	3797.08500
0.12297	0.00000	3797.08500
0.12680	0.00000	3797.08500
0.13062	0.00000	3797.08500
0.13443	0.00000	3797.08500
0.13825	0.00000	3756.76900
0.14207	0.00000	3756.76900
0.14590	0.00000	3756.76900
0.14972	0.00000	3756.76900
0.15354	0.00000	3726.00500
0.15736	0.00000	3726.00500
0.16118	0.00000	3726.00500
0.16500	0.00000	3726.00500
0.16884	0.00000	3726.00500
0.17266	0.00000	3701.83500
0.17648	0.00000	3701.83500
0.18030	0.00000	3701.83500
0.18413	0.00000	3701.83500
0.18795	0.00000	3701.83500
0.19178	0.00000	3670.79800
0.19560	0.00000	3670.79800
0.19944	0.00000	3670.79800
0.20326	0.00000	3670.79800
0.20709	0.00000	3656.07600
0.21091	0.00000	3656.07600
0.21474	0.00000	3656.07600
0.21857	0.00000	3656.07600
0.22241	0.00000	3656.07600
0.22623	0.00000	3638.78600
0.23007	0.00000	3638.78600
0.23390	0.00000	3638.78600
0.23773	0.00000	3638.78600
0.24157	0.00000	3638.78600
0.24541	0.00000	3617.93300
0.24925	0.00000	3617.93300
0.25308	0.00000	3617.93300
0.25691	0.00000	3617.93300
0.26075	0.00000	3606.30800
0.26458	0.00000	3606.30800
0.26838	0.00000	3606.30800
0.27222	0.00000	3606.30800
0.27604	0.00000	3606.30800
0.27987	0.00000	3596.36800
0.28371	0.00000	3596.36800
0.28755	0.00000	3596.36800
0.29137	0.00000	3596.36800
0.29521	0.00000	3580.82700
0.29906	0.00000	3580.82700
0.30288	0.00000	3580.82700
0.30671	0.00000	3580.82700
0.31055	0.00000	3580.82700
0.31438	0.00000	3570.92700
0.31820	0.00000	3570.92700
0.32204	0.00000	3570.92700
0.32587	0.00000	3570.92700
0.32971	0.00000	3570.92700
0.33353	0.00000	3560.03700
0.33736	0.00000	3560.03700
0.34120	0.00000	3560.03700
0.34503	0.00000	3560.03700
0.34886	0.00000	3559.14200
0.35269	0.00000	3559.14200
0.35652	0.00000	3559.14200
0.36035	0.00000	3559.14200
0.36418	0.00000	3559.14200
0.36800	0.00000	3542.44800
0.37183	0.00000	3542.44800
0.37567	0.00000	3542.44800
0.37950	0.00000	3542.44800
0.38332	0.00000	3547.77600
0.38715	0.00000	3547.77600
0.39097	0.00000	3547.77600
0.39479	0.00000	3547.77600
0.39862	0.00000	3547.77600
0.40245	0.00000	3534.60400
0.40629	0.00000	3534.60400
0.41012	0.00000	3534.60400
0.41395	0.00000	3534.60400
0.41778	0.00000	3530.03700
0.42161	0.00000	3530.03700
0.42545	0.00000	3530.03700
0.42927	0.00000	3530.03700
0.43310	0.00000	3530.03700
0.43693	0.00000	3534.60400
0.44076	0.00000	3534.60400
0.44459	0.00000	3534.60400
0.44838	0.00000	3534.60400
0.45220	0.00000	3518.73800
0.45604	0.00000	3518.73800
0.45986	0.00000	3518.73800
0.46370	0.00000	3518.73800
0.46752	0.00000	3518.73800
0.47136	0.00000	3523.58500
0.47519	0.00000	3523.58500
0.47902	0.00000	3523.58500
0.48285	0.00000	3523.58500
0.48668	0.00000	3514.73400
0.49051	0.00000	3514.73400
0.49435	0.00000	3514.73400
0.49820	0.00000	3514.73400
0.50204	0.00000	3514.73400
0.50587	0.00000	3512.74700
0.50970	0.00000	3512.74700
0.51352	0.00000	3512.74700
0.51736	0.00000	3512.74700
0.52118	0.00000	3511.16900
0.52502	0.00000	3511.16900
0.52884	0.00000	3511.16900
0.53267	0.00000	3511.16900
0.53650	0.00000	3511.16900
0.54033	0.00000	3511.84800
0.54418	0.00000	3511.84800
0.54801	0.00000	3511.84800
0.55184	0.00000	3511.84800
0.55566	0.00000	3500.23700
0.55950	0.00000	3500.23700
0.56334	0.00000	3500.23700
0.56716	0.00000	3500.23700
0.57099	0.00000	3500.23700
0.57481	0.00000	3504.50600
0.57863	0.00000	3504.50600
0.58246	0.00000	3504.50600
0.58629	0.00000	3504.50600
0.59012	0.00000	3503.57100
0.59395	0.00000	3503.57100
0.59779	0.00000	3503.57100
0.60162	0.00000	3503.57100
0.60544	0.00000	3503.57100
0.60927	0.00000	3500.23700
0.61309	0.00000	3500.23700
0.61692	0.00000	3500.23700
0.62074	0.00000	3500.23700
0.62458	0.00000	3500.00000
0.62838	0.00000	3500.00000
0.63221	0.00000	3500.00000
0.63603	0.00000	3500.00000
0.63987	0.00000	3500.00000
0.64369	0.00000	3500.00000
0.64752	0.00000	3500.00000
0.65134	0.00000	3500.00000
0.65517	0.00000	3500.00000
0.65899	0.00000	3499.76100
0.66284	0.00000	3499.76100
0.66667	0.00000	3499.76100
0.67050	0.00000	3499.76100
0.67433	0.00000	3499.76100
0.67815	0.00000	3492.85700
0.68198	0.00000	3492.85700
0.68580	0.00000	3492.85700
0.68963	0.00000	3492.85700
0.69345	0.00000	3492.85700
0.69728	0.00000	3493.10100
0.70111	0.00000	3493.10100
0.70494	0.00000	3493.10100
0.70877	0.00000	3493.10100
0.71259	0.00000	3492.61200
0.71638	0.00000	3492.61200
0.72020	0.00000	3492.61200
0.72403	0.00000	3492.61200
0.72785	0.00000	3492.61200
0.73166	0.00000	3489.78100
0.73549	0.00000	3489.78100
0.73931	0.00000	3489.78100
0.74314	0.00000	3489.78100
0.74696	0.00000	3492.36600
0.75079	0.00000	3492.36600
0.75461	0.00000	3492.36600
0.75844	0.00000	3492.36600
0.76227	0.00000	3492.36600
0.76609	0.00000	3493.34600
0.76992	0.00000	3493.34600
0.77374	0.00000	3493.34600
0.77757	0.00000	3493.34600
0.78139	0.00000	3495.70200
0.78521	0.00000	3495.70200
0.78904	0.00000	3495.70200
0.79286	0.00000	3495.70200
0.79669	0.00000	3495.70200
0.80052	0.00000	3486.46700
0.80435	0.00000	3486.46700
0.80819	0.00000	3486.46700
0.81201	0.00000	3486.46700
0.81583	0.00000	3488.78800
0.81966	0.00000	3488.78800
0.82349	0.00000	3488.78800
0.82732	0.00000	3488.78800
0.83115	0.00000	3488.78800
0.83497	0.00000	3486.46700
0.83879	0.00000	3486.46700
0.84262	0.00000	3486.46700
0.84644	0.00000	3486.46700
0.85026	0.00000	3484.95700
0.85408	0.00000	3484.95700
0.85791	0.00000	3484.95700
0.86174	0.00000	3484.95700
0.86557	0.00000	3484.95700
0.86939	0.00000	3490.02800
0.87323	0.00000	3490.02800
0.87706	0.00000	3490.02800
0.88088	0.00000	3490.02800
0.88471	0.00000	3488.78800
0.88854	0.00000	3488.78800
0.89236	0.00000	3488.78800
0.89619	0.00000	3488.78800
0.90002	0.00000	3488.78800
0.90384	0.00000	3486.46700
0.90768	0.00000	3486.46700
0.91150	0.00000	3486.46700
0.91533	0.00000	3486.46700
0.91916	0.00000	3488.78800
0.92298	0.00000	3488.78800
0.92680	0.00000	3488.78800
0.93063	0.00000	3488.78800
0.93446	0.00000	3488.78800
0.93828	0.00000	3482.65200
0.94212	0.00000	3482.65200
0.94594	0.00000	3482.65200
0.94977	0.00000	3482.65200
0.95360	0.00000	3488.53800
0.95742	0.00000	3488.53800
0.96124	0.00000	3488.53800
0.96506	0.00000	3488.53800
0.96889	0.00000	3488.53800
0.97272	0.00000	3486.21600
0.97654	0.00000	3486.21600
0.98037	0.00000	3486.21600
0.98420	0.00000	3486.21600
0.98802	0.00000	3485.21000
0.99185	0.00000	3485.21000
0.99568	0.00000	3485.21000
0.99950	0.00000	3485.21000
1.00334	0.00000	3485.21000
1.00717	0.00000	3486.71700
1.01099	0.00000	3486.71700
1.01481	0.00000	3486.71700
1.01863	0.00000	3486.71700
1.02246	0.00000	3488.53800
1.02628	0.00000	3488.53800
1.03010	0.00000	3488.53800
1.03393	0.00000	3488.53800
1.03776	0.00000	3488.53800
1.04158	0.00000	3486.71700
1.04540	0.00000	3486.71700
1.04922	0.00000	3486.71700
1.05305	0.00000	3486.71700
1.05687	0.00000	3481.37500
1.06070	0.00000	3481.37500
1.06453	0.00000	3481.37500
1.06836	0.00000	3481.37500
1.07219	0.00000	3481.37500
1.07602	0.00000	3486.71700
1.07984	0.00000	3486.71700
1.08367	0.00000	3486.71700
1.08750	0.00000	3486.71700
1.09132	0.00000	3485.21000
1.09515	0.00000	3485.21000
1.09898	0.00000	3485.21000
1.10280	0.00000	3485.21000
1.10663	0.00000	3485.21000
1.11045	0.00000	3486.96600
1.11428	0.00000	3486.96600
1.11811	0.00000	3486.96600
1.12193	0.00000	3486.96600
1.12575	0.00000	3484.70300
1.12958	0.00000	3484.70300
1.13341	0.00000	3484.70300
1.13723	0.00000	3484.70300
1.14105	0.00000	3484.70300
1.14487	0.00000	3483.15900
1.14870	0.00000	3483.15900
1.15252	0.00000	3483.15900
1.15635	0.00000	3483.15900
1.16018	0.00000	3484.95700
1.16401	0.00000	3484.95700
1.16783	0.00000	3484.95700
1.17165	0.00000	3484.95700
1.17548	0.00000	3484.95700
1.17930	0.00000	3490.27500
1.18313	0.00000	3490.27500
1.18695	0.00000	3490.27500
1.19078	0.00000	3490.27500
1.19462	0.00000	3485.21000
1.19845	0.00000	3485.21000
1.20227	0.00000	3485.21000
1.20609	0.00000	3485.21000
1.20991	0.00000	3485.21000
1.21373	0.00000	3486.96600
1.21756	0.00000	3486.96600
1.22139	0.00000	3486.96600
1.22522	0.00000	3486.96600
1.22904	0.00000	3484.95700
1.23287	0.00000	3484.95700
1.23671	0.00000	3484.95700
1.24053	0.00000	3484.95700
1.24435	0.00000	3484.95700
1.24818	0.00000	3483.41200
1.25201	0.00000	3483.41200
1.25583	0.00000	3483.41200
1.25966	0.00000	3483.41200
1.26348	0.00000	3484.95700
1.26730	0.00000	3484.95700
1.27112	0.00000	3484.95700
1.27495	0.00000	3484.95700
1.27879	0.00000	3484.95700
1.28261	0.00000	3482.90600
1.28644	0.00000	3482.90600
1.29026	0.00000	3482.90600
1.29409	0.00000	3482.90600
1.29792	0.00000	3484.95700
1.30175	0.00000	3484.95700
1.30559	0.00000	3484.95700
1.30941	0.00000	3484.95700
1.31323	0.00000	3484.95700
1.31706	0.00000	3490.27500
1.32088	0.00000	3490.27500
1.32471	0.00000	3490.27500
1.32854	0.00000	3490.27500
1.33237	0.00000	3485.21000
1.33621	0.00000	3485.21000
1.34003	0.00000	3485.21000
1.34386	0.00000	3485.21000
1.34769	0.00000	3485.21000
1.35151	0.00000	3486.46700
1.35534	0.00000	3486.46700
1.35917	0.00000	3486.46700
1.36299	0.00000	3486.46700
1.36682	0.00000	3481.63100
1.37064	0.00000	3481.63100
1.37446	0.00000	3481.63100
1.37829	0.00000	3481.63100
1.38212	0.00000	3481.63100
1.38594	0.00000	3483.15900
1.38977	0.00000	3483.15900
1.39360	0.00000	3483.15900
1.39742	0.00000	3483.15900
1.40124	0.00000	3485.21000
1.40507	0.00000	3485.21000
1.40889	0.00000	3485.21000
1.41272	0.00000	3485.21000
1.41655	0.00000	3485.21000
1.42037	0.00000	3486.71700
1.42420	0.00000	3486.71700
1.42803	0.00000	3486.71700
1.43185	0.00000	3486.71700
1.43567	0.00000	3488.53800
1.43951	0.00000	3488.53800
1.44334	0.00000	3488.53800
1.44717	0.00000	3488.53800
1.45100	0.00000	3488.53800
1.45483	0.00000	3490.02800
1.45866	0.00000	3490.02800
1.46249	0.00000	3490.02800
1.46631	0.00000	3490.02800
1.47014	0.00000	3484.95700
1.47396	0.00000	3484.95700
1.47779	0.00000	3484.95700
1.48161	0.00000	3484.95700
1.48544	0.00000	3484.95700
1.48926	0.00000	3486.71700
1.49309	0.00000	3486.71700
1.49692	0.00000	3486.71700
1.50075	0.00000	3486.71700
1.50458	0.00000	3484.95700
1.50838	0.00000	3484.95700
1.51221	0.00000	3484.95700
1.51603	0.00000	3484.95700
1.51984	0.00000	3484.95700
1.52367	0.00000	3486.96600
1.52750	0.00000	3486.96600
1.53132	0.00000	3486.96600
1.53514	0.00000	3486.96600
1.53897	0.00000	3491.87300
1.54280	0.00000	3491.87300
1.54663	0.00000	3491.87300
1.55045	0.00000	3491.87300
1.55427	0.00000	3491.87300
1.55809	0.00000	3486.71700
1.56192	0.00000	3486.71700
1.56575	0.00000	3486.71700
1.56957	0.00000	3486.71700
1.57339	0.00000	3481.11800
1.57723	0.00000	3481.11800
1.58106	0.00000	3481.11800
1.58488	0.00000	3481.11800
1.58871	0.00000	3481.11800
1.59254	0.00000	3483.41200
1.59636	0.00000	3483.41200
1.60020	0.00000	3483.41200
1.60402	0.00000	3483.41200
1.60784	0.00000	3488.78800
1.61167	0.00000	3488.78800
1.61550	0.00000	3488.78800
1.61932	0.00000	3488.78800
1.62313	0.00000	3488.78800
1.62697	0.00000	3490.52100
1.63079	0.00000	3490.52100
1.63461	0.00000	3490.52100
1.63843	0.00000	3490.52100
1.64226	0.00000	3485.21000
1.64608	0.00000	3485.21000
1.64991	0.00000	3485.21000
1.65373	0.00000	3485.21000
1.65756	0.00000	3485.21000
1.66139	0.00000	3486.71700
1.66521	0.00000	3486.71700
1.66903	0.00000	3486.71700
1.67286	0.00000	3486.71700
1.67668	0.00000	3481.37500
1.68050	0.00000	3481.37500
1.68433	0.00000	3481.37500
1.68817	0.00000	3481.37500
1.69199	0.00000	3481.37500
1.69581	0.00000	3486.96600
1.69964	0.00000	3486.96600
1.70347	0.00000	3486.96600
1.70729	0.00000	3486.96600
1.71111	0.00000	3484.95700
1.71493	0.00000	3484.95700
1.71876	0.00000	3484.95700
1.72258	0.00000	3484.95700
1.72641	0.00000	3484.95700
1.73024	0.00000	3490.52100
1.73407	0.00000	3490.52100
1.73789	0.00000	3490.52100
1.74171	0.00000	3490.52100
1.74554	0.00000	3481.11800
1.74937	0.00000	3481.11800
1.75320	0.00000	3481.11800
1.75703	0.00000	3481.11800
1.76086	0.00000	3481.11800
1.76469	0.00000	3486.96600
1.76851	0.00000	3486.96600
1.77233	0.00000	3486.96600
1.77616	0.00000	3486.96600
1.77998	0.00000	3477.27200
1.78380	0.00000	3477.27200
1.78763	0.00000	3477.27200
1.79146	0.00000	3477.27200
1.79528	0.00000	3477.27200
1.79912	0.00000	3486.96600
1.80295	0.00000	3486.96600
1.80678	0.00000	3486.96600
1.81060	0.00000	3486.96600
1.81442	0.00000	3485.21000
1.81825	0.00000	3485.21000
1.82208	0.00000	3485.21000
1.82590	0.00000	3485.21000
1.82973	0.00000	3485.21000
1.83356	0.00000	3490.76600
1.83738	0.00000	3490.76600
1.84121	0.00000	3490.76600
1.84503	0.00000	3490.76600
1.84885	0.00000	3484.95700
1.85268	0.00000	3484.95700
1.85650	0.00000	3484.95700
1.86032	0.00000	3484.95700
1.86415	0.00000	3484.95700
1.86798	0.00000	3486.96600
1.87180	0.00000	3486.96600
1.87563	0.00000	3486.96600
1.87944	0.00000	3486.96600
1.88327	0.00000	3495.70200
1.88710	0.00000	3495.70200
1.89092	0.00000	3495.70200
1.89475	0.00000	3495.70200
1.89858	0.00000	3495.70200
1.90241	0.00000	3494.07600
1.90623	0.00000	3494.07600
1.91006	0.00000	3494.07600
1.91388	0.00000	3494.07600
1.91771	0.00000	3485.21000
1.92154	0.00000	3485.21000
1.92536	0.00000	3485.21000
1.92919	0.00000	3485.21000
1.93301	0.00000	3485.21000
1.93684	0.00000	3490.52100
1.94067	0.00000	3490.52100
1.94449	0.00000	3490.52100
1.94831	0.00000	3490.52100
1.95213	0.00000	3484.95700
1.95597	0.00000	3484.95700
1.95979	0.00000	3484.95700
1.96362	0.00000	3484.95700
1.96744	0.00000	3484.95700
1.97128	0.00000	3490.27500
1.97511	0.00000	3490.27500
1.97894	0.00000	3490.27500
1.98276	0.00000	3490.27500
1.98659	0.00000	3488.78800
1.99042	0.00000	3488.78800
1.99424	0.00000	3488.78800
1.99808	0.00000	3488.78800
2.00191	0.00000	3488.78800
2.00575	0.00000	3489.78100
2.00958	0.00000	3489.78100
2.01340	0.00000	3489.78100
2.01722	0.00000	3489.78100
2.02105	0.00000	3489.03700
2.02489	0.00000	3489.03700
2.02871	0.00000	3489.03700
2.03253	0.00000	3489.03700
2.03635	0.00000	3489.03700
2.04018	0.00000	3496.91000
2.04400	0.00000	3496.91000
2.04783	0.00000	3496.91000
2.05165	0.00000	3496.91000
2.05548	0.00000	3492.36600
2.05931	0.00000	3492.36600
2.06314	0.00000	3492.36600
2.06698	0.00000	3492.36600
2.07080	0.00000	3492.36600
2.07463	0.00000	3493.10100
2.07845	0.00000	3493.10100
2.08228	0.00000	3493.10100
2.08610	0.00000	3493.10100
2.08993	0.00000	3492.36600
2.09376	0.00000	3492.36600
2.09758	0.00000	3492.36600
2.10141	0.00000	3492.36600
2.10524	0.00000	3492.36600
2.10906	0.00000	3489.53300
2.11288	0.00000	3489.53300
2.11670	0.00000	3489.53300
2.12052	0.00000	3489.53300
2.12434	0.00000	3484.70300
2.12818	0.00000	3484.70300
2.13201	0.00000	3484.70300
2.13584	0.00000	3484.70300
2.13966	0.00000	3484.70300
2.14349	0.00000	3489.53300
2.14731	0.00000	3489.53300
2.15113	0.00000	3489.53300
2.15496	0.00000	3489.53300
2.15878	0.00000	3492.36600
2.16260	0.00000	3492.36600
2.16642	0.00000	3492.36600
2.17025	0.00000	3492.36600
2.17407	0.00000	3492.36600
2.17790	0.00000	3492.85700
2.18173	0.00000	3492.85700
2.18555	0.00000	3492.85700
2.18937	0.00000	3492.85700
2.19320	0.00000	3492.61200
2.19701	0.00000	3492.61200
2.20084	0.00000	3492.61200
2.20466	0.00000	3492.61200
2.20848	0.00000	3492.61200
2.21231	0.00000	3492.85700
2.21613	0.00000	3492.85700
2.21995	0.00000	3492.85700
2.22377	0.00000	3492.85700
2.22760	0.00000	3488.78800
2.23144	0.00000	3488.78800
2.23527	0.00000	3488.78800
2.23910	0.00000	3488.78800
2.24292	0.00000	3488.78800
2.24675	0.00000	3492.85700
2.25058	0.00000	3492.85700
2.25441	0.00000	3492.85700
2.25824	0.00000	3492.85700
2.26206	0.00000	3492.36600
2.26588	0.00000	3492.36600
2.26971	0.00000	3492.36600
2.27353	0.00000	3492.36600
2.27736	0.00000	3492.36600
2.28118	0.00000	3489.03700
2.28501	0.00000	3489.03700
2.28883	0.00000	3489.03700
2.29266	0.00000	3489.03700
2.29648	0.00000	3485.21000
2.30030	0.00000	3485.21000
2.30413	0.00000	3485.21000
2.30796	0.00000	3485.21000
2.31178	0.00000	3485.21000
2.31561	0.00000	3489.03700
2.31943	0.00000	3489.03700
2.32325	0.00000	3489.03700
2.32708	0.00000	3489.03700
2.33091	0.00000	3488.78800
2.33473	0.00000	3488.78800
2.33855	0.00000	3488.78800
2.34237	0.00000	3488.78800
2.34619	0.00000	3488.78800
2.35002	0.00000	3488.78800
2.35385	0.00000	3488.78800
2.35767	0.00000	3488.78800
2.36149	0.00000	3488.78800
2.36533	0.00000	3489.03700
2.36915	0.00000	3489.03700
2.37297	0.00000	3489.03700
2.37680	0.00000	3489.03700
2.38062	0.00000	3489.03700
2.38445	0.00000	3489.03700
2.38827	0.00000	3489.03700
2.39209	0.00000	3489.03700
2.39592	0.00000	3489.03700
2.39974	0.00000	3489.03700
2.40357	0.00000	3496.42800
2.40744	0.00000	3496.42800
2.41131	0.00000	3496.42800
2.41514	0.00000	3496.42800
2.41897	0.00000	3489.03700
2.42280	0.00000	3489.03700
2.42662	0.00000	3489.03700
2.43046	0.00000	3489.03700
2.43428	0.00000	3485.21000
2.43810	0.00000	3485.21000
2.44192	0.00000	3485.21000
2.44575	0.00000	3485.21000
2.44957	0.00000	3485.21000
2.45340	0.00000	3492.36600
2.45723	0.00000	3492.36600
2.46105	0.00000	3492.36600
2.46488	0.00000	3492.36600
2.46870	0.00000	3492.36600
2.47252	0.00000	3489.28500
2.47635	0.00000	3489.28500
2.48018	0.00000	3489.28500
2.48400	0.00000	3489.28500
2.48783	0.00000	3488.78800
2.49165	0.00000	3488.78800
2.49547	0.00000	3488.78800
2.49930	0.00000	3488.78800
2.50312	0.00000	3488.78800
2.50694	0.00000	3489.53300
2.51076	0.00000	3489.53300
2.51459	0.00000	3489.53300
2.51842	0.00000	3489.53300
2.52224	0.00000	3492.61200
2.52607	0.00000	3492.61200
2.52989	0.00000	3492.61200
2.53372	0.00000	3492.61200
2.53754	0.00000	3492.61200
2.54136	0.00000	3493.58900
2.54518	0.00000	3493.58900
2.54901	0.00000	3493.58900
2.55284	0.00000	3493.58900
2.55667	0.00000	3492.36600
2.56049	0.00000	3492.36600
2.56431	0.00000	3492.36600
2.56813	0.00000	3492.36600
2.57196	0.00000	3492.36600
2.57578	0.00000	3493.58900
2.57960	0.00000	3493.58900
2.58344	0.00000	3493.58900
2.58726	0.00000	3493.58900
2.59108	0.00000	3495.70200
2.59491	0.00000	3495.70200
2.59874	0.00000	3495.70200
2.60256	0.00000	3495.70200
2.60639	0.00000	3495.70200
2.61022	0.00000	3490.52100
2.61404	0.00000	3490.52100
2.61787	0.00000	3490.52100
2.62169	0.00000	3490.52100
2.62552	0.00000	3492.61200
2.62934	0.00000	3492.61200
2.63317	0.00000	3492.61200
2.63699	0.00000	3492.61200
2.64082	0.00000	3492.61200
2.64464	0.00000	3486.71700
2.64847	0.00000	3486.71700
2.65230	0.00000	3486.71700
2.65612	0.00000	3486.71700
2.65994	0.00000	3488.78800
2.66376	0.00000	3488.78800
2.66758	0.00000	3488.78800
2.67140	0.00000	3488.78800
2.67523	0.00000	3488.78800
2.67905	0.00000	3490.27500
2.68288	0.00000	3490.27500
2.68670	0.00000	3490.27500
2.69052	0.00000	3490.27500
2.69434	0.00000	3492.36600
2.69817	0.00000	3492.36600
2.70199	0.00000	3492.36600
2.70582	0.00000	3492.36600
2.70965	0.00000	3492.36600
2.71348	0.00000	3497.63000
2.71730	0.00000	3497.63000
2.72113	0.00000	3497.63000
2.72495	0.00000	3497.63000
2.72878	0.00000	3489.28500
2.73260	0.00000	3489.28500
2.73638	0.00000	3489.28500
2.74021	0.00000	3489.28500
2.74403	0.00000	3489.28500
2.74785	0.00000	3494.31800
2.75168	0.00000	3494.31800
2.75551	0.00000	3494.31800
2.75933	0.00000	3494.31800
2.76316	0.00000	3488.78800
2.76698	0.00000	3488.78800
2.77081	0.00000	3488.78800
2.77463	0.00000	3488.78800
2.77845	0.00000	3488.78800
2.78228	0.00000	3490.76600
2.78610	0.00000	3490.76600
2.78992	0.00000	3490.76600
2.79375	0.00000	3490.76600
2.79757	0.00000	3488.78800
2.80140	0.00000	3488.78800
2.80522	0.00000	3488.78800
2.80904	0.00000	3488.78800
2.81286	0.00000	3488.78800
2.81669	0.00000	3490.52100
2.82051	0.00000	3490.52100
2.82433	0.00000	3490.52100
2.82817	0.00000	3490.52100
2.83199	0.00000	3492.36600
2.83582	0.00000	3492.36600
2.83965	0.00000	3492.36600
2.84349	0.00000	3492.36600
2.84731	0.00000	3492.36600
2.85114	0.00000	3494.31800
2.85495	0.00000	3494.31800
2.85878	0.00000	3494.31800
2.86261	0.00000	3494.31800
2.86643	0.00000	3492.61200
2.87026	0.00000	3492.61200
2.87409	0.00000	3492.61200
2.87791	0.00000	3492.61200
2.88174	0.00000	3492.61200
2.88557	0.00000	3494.31800
2.88939	0.00000	3494.31800
2.89321	0.00000	3494.31800
2.89703	0.00000	3494.31800
2.90086	0.00000	3495.94400
2.90470	0.00000	3495.94400
2.90852	0.00000	3495.94400
2.91235	0.00000	3495.94400
2.91618	0.00000	3495.94400
2.92001	0.00000	3497.39000
2.92383	0.00000	3497.39000
2.92766	0.00000	3497.39000
2.93149	0.00000	3497.39000
2.93532	0.00000	3492.36600
2.93915	0.00000	3492.36600
2.94297	0.00000	3492.36600
2.94679	0.00000	3492.36600
2.95062	0.00000	3492.36600
2.95444	0.00000	3491.01200
2.95827	0.00000	3491.01200
2.96210	0.00000	3491.01200
2.96593	0.00000	3491.01200
2.96975	0.00000	3488.78800
2.97358	0.00000	3488.78800
2.97741	0.00000	3488.78800
2.98123	0.00000	3488.78800
2.98506	0.00000	3488.78800
2.98888	0.00000	3494.31800
2.99271	0.00000	3494.31800
2.99653	0.00000	3494.31800
3.00037	0.00000	3494.31800
3.00420	0.00000	3492.36600
3.00803	0.00000	3492.36600
3.01186	0.00000	3492.36600
3.01569	0.00000	3492.36600
3.01951	0.00000	3492.36600
3.02334	0.00000	3494.31800
3.02716	0.00000	3494.31800
3.03099	0.00000	3494.31800
3.03482	0.00000	3494.31800
3.03865	0.00000	3492.61200
3.04249	0.00000	3492.61200
3.04632	0.00000	3492.61200
3.05022	0.00000	3492.61200
3.05407	0.00000	3492.61200
3.05790	0.00000	3497.63000
3.06173	0.00000	3497.63000
3.06555	0.00000	3497.63000
3.06937	0.00000	3497.63000
3.07319	0.00000	3496.18600
3.07702	0.00000	3496.18600
3.08084	0.00000	3496.18600
3.08467	0.00000	3496.18600
3.08849	0.00000	3496.18600
3.09231	0.00000	3490.52100
3.09613	0.00000	3490.52100
3.09996	0.00000	3490.52100
3.10379	0.00000	3490.52100
3.10762	0.00000	3489.03700
3.11146	0.00000	3489.03700
3.11529	0.00000	3489.03700
3.11911	0.00000	3489.03700
3.12294	0.00000	3489.03700
3.12677	0.00000	3494.07600
3.13060	0.00000	3494.07600
3.13443	0.00000	3494.07600
3.13825	0.00000	3494.07600
3.14208	0.00000	3492.36600
3.14591	0.00000	3492.36600
3.14975	0.00000	3492.36600
3.15358	0.00000	3492.36600
3.15740	0.00000	3492.36600
3.16122	0.00000	3487.21500
3.16505	0.00000	3487.21500
3.16888	0.00000	3487.21500
3.17270	0.00000	3487.21500
3.17652	0.00000	3492.36600
3.18036	0.00000	3492.36600
3.18419	0.00000	3492.36600
3.18801	0.00000	3492.36600
3.19184	0.00000	3492.36600
3.19566	0.00000	3487.21500
3.19948	0.00000	3487.21500
3.20330	0.00000	3487.21500
3.20713	0.00000	3487.21500
3.21097	0.00000	3492.36600
3.21479	0.00000	3492.36600
3.21862	0.00000	3492.36600
3.22244	0.00000	3492.36600
3.22627	0.00000	3492.36600
3.23009	0.00000	3489.78100
3.23391	0.00000	3489.78100
3.23773	0.00000	3489.78100
3.24155	0.00000	3489.78100
3.24538	0.00000	3484.95700
3.24920	0.00000	3484.95700
3.25302	0.00000	3484.95700
3.25685	0.00000	3484.95700
3.26067	0.00000	3484.95700
3.26449	0.00000	3486.21600
3.26831	0.00000	3486.21600
3.27213	0.00000	3486.21600
3.27595	0.00000	3486.21600
3.27978	0.00000	3488.78800
3.28360	0.00000	3488.78800
3.28743	0.00000	3488.78800
3.29126	0.00000	3488.78800
3.29510	0.00000	3488.78800
3.29893	0.00000	3486.21600
3.30275	0.00000	3486.21600
3.30658	0.00000	3486.21600
3.31040	0.00000	3486.21600
3.31424	0.00000	3488.78800
3.31806	0.00000	3488.78800
3.32188	0.00000	3488.78800
3.32571	0.00000	3488.78800
3.32953	0.00000	3488.78800
3.33335	0.00000	3492.61200
3.33718	0.00000	3492.61200
3.34101	0.00000	3492.61200
3.34484	0.00000	3492.61200
3.34866	0.00000	3488.53800
3.35250	0.00000	3488.53800
3.35632	0.00000	3488.53800
3.36014	0.00000	3488.53800
3.36396	0.00000	3488.53800
3.36778	0.00000	3492.85700
3.37160	0.00000	3492.85700
3.37542	0.00000	3492.85700
3.37924	0.00000	3492.85700
3.38306	0.00000	3488.78800
3.38689	0.00000	3488.78800
3.39071	0.00000	3488.78800
3.39453	0.00000	3488.78800
3.39836	0.00000	3488.78800
3.40218	0.00000	3489.28500
3.40601	0.00000	3489.28500
3.40984	0.00000	3489.28500
3.41367	0.00000	3489.28500
3.41749	0.00000	3492.36600
3.42131	0.00000	3492.36600
3.42514	0.00000	3492.36600
3.42896	0.00000	3492.36600
3.43279	0.00000	3492.36600
3.43662	0.00000	3492.61200
3.44044	0.00000	3492.61200
3.44427	0.00000	3492.61200
3.44809	0.00000	3492.61200
3.45192	0.00000	3492.12000
3.45574	0.00000	3492.12000
3.45956	0.00000	3492.12000
3.46338	0.00000	3492.12000
3.46721	0.00000	3492.12000
3.47104	0.00000	3485.46200
3.47487	0.00000	3485.46200
3.47869	0.00000	3485.46200
3.48251	0.00000	3485.46200
3.48633	0.00000	3488.53800
3.49017	0.00000	3488.53800
3.49399	0.00000	3488.53800
3.49781	0.00000	3488.53800
3.50164	0.00000	3488.53800
3.50546	0.00000	3492.61200
3.50928	0.00000	3492.61200
3.51310	0.00000	3492.61200
3.51692	0.00000	3492.61200
3.52074	0.00000	3485.21000
3.52457	0.00000	3485.21000
3.52838	0.00000	3485.21000
3.53221	0.00000	3485.21000
3.53605	0.00000	3485.21000
3.53988	0.00000	3485.21000
3.54371	0.00000	3485.21000
3.54756	0.00000	3485.21000
3.55140	0.00000	3485.21000
3.55523	0.00000	3485.21000
3.55905	0.00000	3485.21000
3.56287	0.00000	3485.21000
3.56670	0.00000	3485.21000
3.57051	0.00000	3485.21000
3.57434	0.00000	3488.78800
3.57817	0.00000	3488.78800
3.58199	0.00000	3488.78800
3.58581	0.00000	3488.78800
3.58963	0.00000	3489.03700
3.59345	0.00000	3489.03700
3.59729	0.00000	3489.03700
3.60111	0.00000	3489.03700
3.60494	0.00000	3489.03700
3.60876	0.00000	3485.46200
3.61259	0.00000	3485.46200
3.61638	0.00000	3485.46200
3.62020	0.00000	3485.46200
3.62403	0.00000	3484.95700
3.62784	0.00000	3484.95700
3.63166	0.00000	3484.95700
3.63549	0.00000	3484.95700
3.63932	0.00000	3484.95700
3.64315	0.00000	3481.63100
3.64697	0.00000	3481.63100
3.65079	0.00000	3481.63100
3.65463	0.00000	3481.63100
3.65845	0.00000	3484.95700
3.66227	0.00000	3484.95700
3.66610	0.00000	3484.95700
3.66992	0.00000	3484.95700
3.67376	0.00000	3484.95700
3.67758	0.00000	3485.21000
3.68140	0.00000	3485.21000
3.68522	0.00000	3485.21000
3.68907	0.00000	3485.21000
3.69290	0.00000	3485.21000
3.69672	0.00000	3485.21000
3.70054	0.00000	3485.21000
3.70436	0.00000	3485.21000
3.70819	0.00000	3485.21000
3.71202	0.00000	3488.53800
3.71585	0.00000	3488.53800
3.71967	0.00000	3488.53800
3.72350	0.00000	3488.53800
3.72732	0.00000	3477.79300
3.73114	0.00000	3477.79300
3.73497	0.00000	3477.79300
3.73879	0.00000	3477.79300
3.74262	0.00000	3477.79300
3.74644	0.00000	3484.95700
3.75027	0.00000	3484.95700
3.75410	0.00000	3484.95700
3.75792	0.00000	3484.95700
3.76175	0.00000	3478.05300
3.76557	0.00000	3478.05300
3.76939	0.00000	3478.05300
3.77321	0.00000	3478.05300
3.77704	0.00000	3478.05300
3.78086	0.00000	3485.21000
3.78469	0.00000	3485.21000
3.78851	0.00000	3485.21000
3.79233	0.00000	3485.21000
3.79616	0.00000	3481.11800
3.79998	0.00000	3481.11800
3.80380	0.00000	3481.11800
3.80763	0.00000	3481.11800
3.81146	0.00000	3481.11800
3.81527	0.00000	3484.95700
3.81910	0.00000	3484.95700
3.82292	0.00000	3484.95700
3.82675	0.00000	3484.95700
3.83056	0.00000	3478.05300
3.83439	0.00000	3478.05300
3.83821	0.00000	3478.05300
3.84204	0.00000	3478.05300
3.84586	0.00000	3478.05300
3.84968	0.00000	3481.63100
3.85351	0.00000	3481.63100
3.85734	0.00000	3481.63100
3.86116	0.00000	3481.63100
3.86499	0.00000	3481.63100
3.86881	0.00000	3481.63100
3.87263	0.00000	3481.63100
3.87646	0.00000	3481.63100
3.88028	0.00000	3481.63100
3.88411	0.00000	3488.53800
3.88794	0.00000	3488.53800
3.89177	0.00000	3488.53800
3.89560	0.00000	3488.53800
3.89942	0.00000	3484.95700
3.90324	0.00000	3484.95700
3.90706	0.00000	3484.95700
3.91088	0.00000	3484.95700
3.91470	0.00000	3484.95700
3.91853	0.00000	3481.11800
3.92235	0.00000	3481.11800
3.92618	0.00000	3481.11800
3.93001	0.00000	3481.11800
3.93383	0.00000	3485.21000
3.93765	0.00000	3485.21000
3.94149	0.00000	3485.21000
3.94531	0.00000	3485.21000
3.94914	0.00000	3485.21000
3.95296	0.00000	3485.21000
3.95679	0.00000	3485.21000
3.96061	0.00000	3485.21000
3.96443	0.00000	3485.21000
3.96826	0.00000	3484.95700
3.97207	0.00000	3484.95700
3.97590	0.00000	3484.95700
3.97972	0.00000	3484.95700
3.98355	0.00000	3484.95700
3.98738	0.00000	3488.53800
3.99120	0.00000	3488.53800
3.99502	0.00000	3488.53800
3.99885	0.00000	3488.53800
4.00267	0.00000	3481.37500
4.00649	0.00000	3481.37500
4.01031	0.00000	3481.37500
4.01413	0.00000	3481.37500
4.01796	0.00000	3481.37500
4.02179	0.00000	3484.95700
4.02562	0.00000	3484.95700
4.02944	0.00000	3484.95700
4.03326	0.00000	3484.95700
4.03709	0.00000	3485.21000
4.04091	0.00000	3485.21000
4.04474	0.00000	3485.21000
4.04856	0.00000	3485.21000
4.05238	0.00000	3485.21000
4.05620	0.00000	3481.37500
4.06002	0.00000	3481.37500
4.06384	0.00000	3481.37500
4.06767	0.00000	3481.37500
4.07149	0.00000	3481.37500
4.07532	0.00000	3481.37500
4.07914	0.00000	3481.37500
4.08296	0.00000	3481.37500
4.08680	0.00000	3481.37500
4.09062	0.00000	3484.95700
4.09444	0.00000	3484.95700
4.09827	0.00000	3484.95700
4.10209	0.00000	3484.95700
4.10592	0.00000	3488.53800
4.10973	0.00000	3488.53800
4.11356	0.00000	3488.53800
4.11738	0.00000	3488.53800
4.12121	0.00000	3488.53800
4.12504	0.00000	3485.21000
4.12886	0.00000	3485.21000
4.13268	0.00000	3485.21000
4.13651	0.00000	3485.21000
4.14033	0.00000	3485.21000
4.14416	0.00000	3485.71400
4.14798	0.00000	3485.71400
4.15179	0.00000	3485.71400
4.15561	0.00000	3485.71400
4.15944	0.00000	3481.37500
4.16325	0.00000	3481.37500
4.16708	0.00000	3481.37500
4.17090	0.00000	3481.37500
4.17473	0.00000	3481.37500
4.17854	0.00000	3488.78800
4.18237	0.00000	3488.78800
4.18619	0.00000	3488.78800
4.19001	0.00000	3488.78800
4.19383	0.00000	3484.95700
4.19766	0.00000	3484.95700
4.20149	0.00000	3484.95700
4.20532	0.00000	3484.95700
4.20915	0.00000	3484.95700
4.21297	0.00000	3485.46200
4.21679	0.00000	3485.46200
4.22063	0.00000	3485.46200
4.22445	0.00000	3485.46200
4.22827	0.00000	3484.95700
4.23210	0.00000	3484.95700
4.23592	0.00000	3484.95700
4.23975	0.00000	3484.95700
4.24358	0.00000	3484.95700
4.24740	0.00000	3481.88700
4.25122	0.00000	3481.88700
4.25505	0.00000	3481.88700
4.25887	0.00000	3481.88700
4.26270	0.00000	3484.70300
4.26652	0.00000	3484.70300
4.27034	0.00000	3484.70300
4.27417	0.00000	3484.70300
4.27799	0.00000	3484.70300
4.28181	0.00000	3478.31200
4.28562	0.00000	3478.31200
4.28945	0.00000	3478.31200
4.29327	0.00000	3478.31200
4.29709	0.00000	3477.53300
4.30092	0.00000	3477.53300
4.30475	0.00000	3477.53300
4.30857	0.00000	3477.53300
4.31238	0.00000	3477.53300
4.31620	0.00000	3485.71400
4.32002	0.00000	3485.71400
4.32385	0.00000	3485.71400
4.32768	0.00000	3485.71400
4.33150	0.00000	3477.79300
4.33532	0.00000	3477.79300
4.33914	0.00000	3477.79300
4.34297	0.00000	3477.79300
4.34679	0.00000	3477.79300
4.35061	0.00000	3474.47500
4.35443	0.00000	3474.47500
4.35827	0.00000	3474.47500
4.36209	0.00000	3474.47500
4.36592	0.00000	3477.27200
4.36975	0.00000	3477.27200
4.37358	0.00000	3477.27200
4.37740	0.00000	3477.27200
4.38123	0.00000	3477.27200
4.38504	0.00000	3481.88700
4.38887	0.00000	3481.88700
4.39269	0.00000	3481.88700
4.39651	0.00000	3481.88700
4.40034	0.00000	3481.37500
4.40417	0.00000	3481.37500
4.40799	0.00000	3481.37500
4.41182	0.00000	3481.37500
4.41565	0.00000	3481.37500
4.41947	0.00000	3481.88700
4.42329	0.00000	3481.88700
4.42711	0.00000	3481.88700
4.43094	0.00000	3481.88700
4.43477	0.00000	3480.86100
4.43860	0.00000	3480.86100
4.44243	0.00000	3480.86100
4.44626	0.00000	3480.86100
4.45009	0.00000	3480.86100
4.45391	0.00000	3485.46200
4.45774	0.00000	3485.46200
4.46156	0.00000	3485.46200
4.46538	0.00000	3485.46200
4.46920	0.00000	3484.95700
4.47302	0.00000	3484.95700
4.47685	0.00000	3484.95700
4.48068	0.00000	3484.95700
4.48450	0.00000	3484.95700
4.48832	0.00000	3482.14200
4.49215	0.00000	3482.14200
4.49598	0.00000	3482.14200
4.49980	0.00000	3482.14200
4.50362	0.00000	3481.11800
4.50744	0.00000	3481.11800
4.51126	0.00000	3481.11800
4.51509	0.00000	3481.11800
4.51891	0.00000	3481.11800
4.52273	0.00000	3478.05300
4.52656	0.00000	3478.05300
4.53039	0.00000	3478.05300
4.53422	0.00000	3478.05300
4.53805	0.00000	3481.11800
4.54187	0.00000	3481.11800
4.54569	0.00000	3481.11800
4.54952	0.00000	3481.11800
4.55334	0.00000	3481.11800
4.55716	0.00000	3485.46200
4.56098	0.00000	3485.46200
4.56480	0.00000	3485.46200
4.56863	0.00000	3485.46200
4.57245	0.00000	3481.63100
4.57627	0.00000	3481.63100
4.58009	0.00000	3481.63100
4.58392	0.00000	3481.63100
4.58774	0.00000	3481.63100
4.59156	0.00000	3485.21000
4.59539	0.00000	3485.21000
4.59921	0.00000	3485.21000
4.60304	0.00000	3485.21000
4.60687	0.00000	3484.70300
4.61070	0.00000	3484.70300
4.61452	0.00000	3484.70300
4.61834	0.00000	3484.70300
4.62217	0.00000	3484.70300
4.62599	0.00000	3485.46200
4.62981	0.00000	3485.46200
4.63365	0.00000	3485.46200
4.63747	0.00000	3485.46200
4.64129	0.00000	3481.11800
4.64512	0.00000	3481.11800
4.64894	0.00000	3481.11800
4.65276	0.00000	3481.11800
4.65659	0.00000	3481.11800
4.66038	0.00000	3482.14200
4.66420	0.00000	3482.14200
4.66802	0.00000	3482.14200
4.67184	0.00000	3482.14200
4.67567	0.00000	3481.37500
4.67949	0.00000	3481.37500
4.68332	0.00000	3481.37500
4.68715	0.00000	3481.37500
4.69098	0.00000	3481.37500
4.69480	0.00000	3485.71400
4.69862	0.00000	3485.71400
4.70245	0.00000	3485.71400
4.70628	0.00000	3485.71400
4.71011	0.00000	3481.37500
4.71393	0.00000	3481.37500
4.71776	0.00000	3481.37500
4.72158	0.00000	3481.37500
4.72541	0.00000	3481.37500
4.72923	0.00000	3478.57100
4.73305	0.00000	3478.57100
4.73688	0.00000	3478.57100
4.74071	0.00000	3478.57100
4.74453	0.00000	3481.37500
4.74836	0.00000	3481.37500
4.75219	0.00000	3481.37500
4.75602	0.00000	3481.37500
4.75985	0.00000	3481.37500
4.76367	0.00000	3478.31200
4.76749	0.00000	3478.31200
4.77130	0.00000	3478.31200
4.77512	0.00000	3478.31200
4.77896	0.00000	3484.70300
4.78278	0.00000	3484.70300
4.78660	0.00000	3484.70300
4.79043	0.00000	3484.70300
4.79425	0.00000	3484.70300
4.79807	0.00000	3482.14200
4.80190	0.00000	3482.14200
4.80573	0.00000	3482.14200
4.80955	0.00000	3482.14200
4.81337	0.00000	3481.37500
4.81720	0.00000	3481.37500
4.82102	0.00000	3481.37500
4.82484	0.00000	3481.37500
4.82867	0.00000	3481.37500
4.83249	0.00000	3482.39700
4.83632	0.00000	3482.39700
4.84015	0.00000	3482.39700
4.84397	0.00000	3482.39700
4.84779	0.00000	3484.95700
4.85162	0.00000	3484.95700
4.85544	0.00000	3484.95700
4.85927	0.00000	3484.95700
4.86310	0.00000	3484.95700
4.86692	0.00000	3482.14200
4.87075	0.00000	3482.14200
4.87457	0.00000	3482.14200
4.87840	0.00000	3482.14200
4.88222	0.00000	3484.95700
4.88604	0.00000	3484.95700
4.88987	0.00000	3484.95700
4.89369	0.00000	3484.95700
4.89752	0.00000	3484.95700
4.90134	0.00000	3482.39700
4.90517	0.00000	3482.39700
4.90898	0.00000	3482.39700
4.91281	0.00000	3482.39700
4.91664	0.00000	3484.70300
4.92047	0.00000	3484.70300
4.92430	0.00000	3484.70300
4.92812	0.00000	3484.70300
4.93194	0.00000	3484.70300
4.93576	0.00000	3482.65200
4.93960	0.00000	3482.65200
4.94342	0.00000	3482.65200
4.94724	0.00000	3482.65200
4.95107	0.00000	3484.95700
4.95489	0.00000	3484.95700
4.95872	0.00000	3484.95700
4.96255	0.00000	3484.95700
4.96637	0.00000	3484.95700
4.97019	0.00000	3485.96500
4.97401	0.00000	3485.96500
4.97785	0.00000	3485.96500
4.98166	0.00000	3485.96500
4.98549	0.00000	3484.70300
4.98931	0.00000	3484.70300
4.99313	0.00000	3484.70300
4.99695	0.00000	3484.70300
5.00128	0.00000	3488.28800
5.00515	0.00000	3488.28800
5.00901	0.00000	3488.28800
5.01284	0.00000	3488.28800
5.01669	0.00000	3488.28800
5.02053	0.00000	3512.29900
5.02437	0.00000	3512.29900
5.02822	0.00000	3512.29900
5.03212	0.00000	3512.29900
5.03599	0.00000	3609.94400
5.03982	0.00000	3609.94400
5.04364	0.00000	3609.94400
5.04749	0.00000	3609.94400
5.05132	0.00000	3609.94400
5.05515	0.00000	3698.29900
5.05898	0.00000	3698.29900
5.06281	0.00000	3698.29900
5.06664	0.00000	3698.29900
5.07047	0.00000	3698.29900
5.07430	0.00000	3770.28800
5.07814	0.00000	3770.28800
5.08197	0.00000	3770.28800
5.08580	0.00000	3770.28800
5.08963	0.00000	3770.28800
5.09346	0.00000	3833.48200
5.09729	0.00000	3833.48200
5.10112	0.00000	3833.48200
5.10495	0.00000	3833.48200
5.10878	0.00000	3833.48200
5.11260	0.00000	3896.14700
5.11639	0.00000	3896.14700
5.12021	0.00000	3896.14700
5.12404	0.00000	3896.14700
5.12789	0.00000	3938.16000
5.13172	0.00000	3938.16000
5.13556	0.00000	3938.16000
5.13939	0.00000	3938.16000
5.14323	0.00000	3938.16000
5.14706	0.00000	3968.47800
5.15090	0.00000	3968.47800
5.15472	0.00000	3968.47800
5.15855	0.00000	3968.47800
5.16238	0.00000	3968.47800
5.16620	0.00000	3998.92200
5.17004	0.00000	3998.92200
5.17388	0.00000	3998.92200
5.17771	0.00000	3998.92200
5.18154	0.00000	3998.92200
5.18537	0.00000	4033.01800
5.18920	0.00000	4033.01800
5.19304	0.00000	4033.01800
5.19687	0.00000	4033.01800
5.20070	0.00000	4033.01800
5.20453	0.00000	4056.90500
5.20835	0.00000	4056.90500
5.21219	0.00000	4056.90500
5.21601	0.00000	4056.90500
5.21983	0.00000	4056.90500
5.22367	0.00000	4075.25500
5.22751	0.00000	4075.25500
5.23133	0.00000	4075.25500
5.23516	0.00000	4075.25500
5.23899	0.00000	4075.25500
5.24282	0.00000	4096.69200
5.24669	0.00000	4096.69200
5.25051	0.00000	4096.69200
5.25435	0.00000	4096.69200
5.25819	0.00000	4096.69200
5.26201	0.00000	4108.19900
5.26585	0.00000	4108.19900
5.26968	0.00000	4108.19900
5.27352	0.00000	4108.19900
5.27735	0.00000	4108.19900
5.28118	0.00000	4113.61700
5.28502	0.00000	4113.61700
5.28887	0.00000	4113.61700
5.29270	0.00000	4113.61700
5.29654	0.00000	4113.61700
5.30038	0.00000	4130.06700
5.30420	0.00000	4130.06700
5.30804	0.00000	4130.06700
5.31186	0.00000	4130.06700
5.31569	0.00000	4130.06700
5.31953	0.00000	4130.06700
5.32335	0.00000	4137.93100
5.32718	0.00000	4137.93100
5.33101	0.00000	4137.93100
5.33486	0.00000	4137.93100
5.33869	0.00000	4137.93100
5.34253	0.00000	4148.86900
5.34637	0.00000	4148.86900
5.35020	0.00000	4148.86900
5.35404	0.00000	4148.86900
5.35787	0.00000	4148.86900
5.36171	0.00000	4149.20400
5.36555	0.00000	4149.20400
5.36939	0.00000	4149.20400
5.37322	0.00000	4149.20400
5.37706	0.00000	4149.20400
5.38091	0.00000	4152.00900
5.38475	0.00000	4152.00900
5.38859	0.00000	4152.00900
5.39238	0.00000	4152.00900
5.39622	0.00000	4152.00900
5.40005	0.00000	4163.53400
5.40389	0.00000	4163.53400
5.40773	0.00000	4163.53400
5.41157	0.00000	4163.53400
5.41541	0.00000	4163.53400
5.41924	0.00000	4178.12500
5.42308	0.00000	4178.12500
5.42692	0.00000	4178.12500
5.43075	0.00000	4178.12500
5.43460	0.00000	4178.12500
5.43844	0.00000	4172.22600
5.44228	0.00000	4172.22600
5.44613	0.00000	4172.22600
5.44998	0.00000	4172.22600
5.45382	0.00000	4172.22600
5.45766	0.00000	4178.12500
5.46149	0.00000	4178.12500
5.46533	0.00000	4178.12500
5.46916	0.00000	4178.12500
5.47300	0.00000	4178.12500
5.47684	0.00000	4172.22600
5.48068	0.00000	4172.22600
5.48451	0.00000	4172.22600
5.48834	0.00000	4172.22600
5.49217	0.00000	4172.22600
5.49600	0.00000	4172.22600
5.49983	0.00000	4184.37500
5.50366	0.00000	4184.37500
5.50751	0.00000	4184.37500
5.51133	0.00000	4184.37500
5.51518	0.00000	4184.37500
5.51901	0.00000	4189.52600
5.52284	0.00000	4189.52600
5.52667	0.00000	4189.52600
5.53050	0.00000	4189.52600
5.53435	0.00000	4189.52600
5.53818	0.00000	4180.53200
5.54201	0.00000	4180.53200
5.54584	0.00000	4180.53200
5.54967	0.00000	4180.53200
5.55350	0.00000	4180.53200
5.55733	0.00000	4181.25000
5.56117	0.00000	4181.25000
5.56500	0.00000	4181.25000
5.56883	0.00000	4181.25000
5.57267	0.00000	4181.25000
5.57651	0.00000	4180.53200
5.58034	0.00000	4180.53200
5.58418	0.00000	4180.53200
5.58801	0.00000	4180.53200
5.59185	0.00000	4180.53200
5.59567	0.00000	4184.01300
5.59952	0.00000	4184.01300
5.60336	0.00000	4184.01300
5.60719	0.00000	4184.01300
5.61103	0.00000	4184.01300
5.61486	0.00000	4180.53200
5.61870	0.00000	4180.53200
5.62254	0.00000	4180.53200
5.62638	0.00000	4180.53200
5.63022	0.00000	4180.53200
5.63406	0.00000	4189.52600
5.63790	0.00000	4189.52600
5.64174	0.00000	4189.52600
5.64558	0.00000	4189.52600
5.64941	0.00000	4189.52600
5.65325	0.00000	4189.52600
5.65709	0.00000	4191.90800
5.66092	0.00000	4191.90800
5.66475	0.00000	4191.90800
5.66860	0.00000	4191.90800
5.67244	0.00000	4191.90800
5.67627	0.00000	4195.02100
5.68010	0.00000	4195.02100
5.68395	0.00000	4195.02100
5.68778	0.00000	4195.02100
5.69162	0.00000	4195.02100
5.69546	0.00000	4198.50500
5.69928	0.00000	4198.50500
5.70312	0.00000	4198.50500
5.70697	0.00000	4198.50500
5.71080	0.00000	4198.50500
5.71464	0.00000	4192.27600
5.71847	0.00000	4192.27600
5.72230	0.00000	4192.27600
5.72613	0.00000	4192.27600
5.72997	0.00000	4192.27600
5.73381	0.00000	4189.16100
5.73765	0.00000	4189.16100
5.74149	0.00000	4189.16100
5.74532	0.00000	4189.16100
5.74915	0.00000	4189.16100
5.75299	0.00000	4186.40800
5.75682	0.00000	4186.40800
5.76066	0.00000	4186.40800
5.76450	0.00000	4186.40800
5.76834	0.00000	4186.40800
5.77218	0.00000	4198.50500
5.77603	0.00000	4198.50500
5.77985	0.00000	4198.50500
5.78369	0.00000	4198.50500
5.78752	0.00000	4198.50500
5.79135	0.00000	4197.76100
5.79519	0.00000	4197.76100
5.79904	0.00000	4197.76100
5.80287	0.00000	4197.76100
5.80670	0.00000	4197.76100
5.81053	0.00000	4197.76100
5.81437	0.00000	4194.65200
5.81820	0.00000	4194.65200
5.82203	0.00000	4194.65200
5.82586	0.00000	4194.65200
5.82969	0.00000	4194.65200
5.83352	0.00000	4195.39000
5.83735	0.00000	4195.39000
5.84119	0.00000	4195.39000
5.84502	0.00000	4195.39000
5.84885	0.00000	4195.39000
5.85268	0.00000	4189.52600
5.85651	0.00000	4189.52600
5.86034	0.00000	4189.52600
5.86419	0.00000	4189.52600
5.86803	0.00000	4189.52600
5.87186	0.00000	4192.64300
5.87569	0.00000	4192.64300
5.87952	0.00000	4192.64300
5.88336	0.00000	4192.64300
5.88720	0.00000	4192.64300
5.89104	0.00000	4188.79700
5.89488	0.00000	4188.79700
5.89871	0.00000	4188.79700
5.90254	0.00000	4188.79700
5.90638	0.00000	4188.79700
5.91021	0.00000	4186.77200
5.91406	0.00000	4186.77200
5.91789	0.00000	4186.77200
5.92173	0.00000	4186.77200
5.92556	0.00000	4186.77200
5.92939	0.00000	4189.52600
5.93322	0.00000	4189.52600
5.93705	0.00000	4189.52600
5.94088	0.00000	4189.52600
5.94471	0.00000	4189.52600
5.94855	0.00000	4189.52600
5.95238	0.00000	4197.39000
5.95621	0.00000	4197.39000
5.96004	0.00000	4197.39000
5.96388	0.00000	4197.39000
5.96773	0.00000	4197.39000
5.97157	0.00000	4189.16100
5.97540	0.00000	4189.16100
5.97924	0.00000	4189.16100
5.98307	0.00000	4189.16100
5.98690	0.00000	4189.16100
5.99074	0.00000	4195.02100
5.99458	0.00000	4195.02100
5.99842	0.00000	4195.02100
6.00225	0.00000	4195.02100
6.00609	0.00000	4195.02100
6.00994	0.00000	4201.24500
6.01377	0.00000	4201.24500
6.01760	0.00000	4201.24500
6.02144	0.00000	4201.24500
6.02527	0.00000	4201.24500
6.02910	0.00000	4195.02100
6.03294	0.00000	4195.02100
6.03678	0.00000	4195.02100
6.04061	0.00000	4195.02100
6.04444	0.00000	4195.02100
6.04828	0.00000	4197.76100
6.05212	0.00000	4197.76100
6.05596	0.00000	4197.76100
6.05979	0.00000	4197.76100
6.06363	0.00000	4197.76100
6.06747	0.00000	4198.50500
6.07130	0.00000	4198.50500
6.07514	0.00000	4198.50500
6.07898	0.00000	4198.50500
6.08280	0.00000	4198.50500
6.08663	0.00000	4198.50500
6.09046	0.00000	4203.22800
6.09429	0.00000	4203.22800
6.09814	0.00000	4203.22800
6.10196	0.00000	4203.22800
6.10579	0.00000	4203.22800
6.10961	0.00000	4191.90800
6.11345	0.00000	4191.90800
6.11730	0.00000	4191.90800
6.12114	0.00000	4191.90800
6.12497	0.00000	4191.90800
6.12882	0.00000	4203.60400
6.13265	0.00000	4203.60400
6.13650	0.00000	4203.60400
6.14034	0.00000	4203.60400
6.14418	0.00000	4203.60400
6.14801	0.00000	4203.60400
6.15184	0.00000	4203.60400
6.15567	0.00000	4203.60400
6.15951	0.00000	4203.60400
6.16334	0.00000	4203.60400
6.16719	0.00000	4204.35700
6.17103	0.00000	4204.35700
6.17487	0.00000	4204.35700
6.17870	0.00000	4204.35700
6.18253	0.00000	4204.35700
6.18637	0.00000	4206.71100
6.19022	0.00000	4206.71100
6.19406	0.00000	4206.71100
6.19790	0.00000	4206.71100
6.20174	0.00000	4206.71100
6.20558	0.00000	4200.49700
6.20942	0.00000	4200.49700
6.21326	0.00000	4200.49700
6.21710	0.00000	4200.49700
6.22094	0.00000	4200.49700
6.22478	0.00000	4200.49700
6.22861	0.00000	4205.57800
6.23245	0.00000	4205.57800
6.23628	0.00000	4205.57800
6.24012	0.00000	4205.57800
6.24397	0.00000	4205.57800
6.24780	0.00000	4207.08900
6.25164	0.00000	4207.08900
6.25547	0.00000	4207.08900
6.25931	0.00000	4207.08900
6.26314	0.00000	4207.08900
6.26699	0.00000	4206.71100
6.27081	0.00000	4206.71100
6.27465	0.00000	4206.71100
6.27849	0.00000	4206.71100
6.28232	0.00000	4206.71100
6.28614	0.00000	4197.76100
6.28997	0.00000	4197.76100
6.29380	0.00000	4197.76100
6.29763	0.00000	4197.76100
6.30148	0.00000	4197.76100
6.30531	0.00000	4198.13300
6.30915	0.00000	4198.13300
6.31297	0.00000	4198.13300
6.31681	0.00000	4198.13300
6.32065	0.00000	4198.13300
6.32447	0.00000	4197.76100
6.32832	0.00000	4197.76100
6.33214	0.00000	4197.76100
6.33598	0.00000	4197.76100
6.33980	0.00000	4197.76100
6.34364	0.00000	4200.87000
6.34748	0.00000	4200.87000
6.35132	0.00000	4200.87000
6.35515	0.00000	4200.87000
6.35899	0.00000	4200.87000
6.36283	0.00000	4200.87000
6.36666	0.00000	4205.95500
6.37050	0.00000	4205.95500
6.37433	0.00000	4205.95500
6.37817	0.00000	4205.95500
6.38200	0.00000	4205.95500
6.38583	0.00000	4203.60400
6.38967	0.00000	4203.60400
6.39351	0.00000	4203.60400
6.39734	0.00000	4203.60400
6.40118	0.00000	4203.60400
6.40504	0.00000	4209.43700
6.40891	0.00000	4209.43700
6.41275	0.00000	4209.43700
6.41659	0.00000	4209.43700
6.42038	0.00000	4209.43700
6.42421	0.00000	4200.87000
6.42805	0.00000	4200.87000
6.43190	0.00000	4200.87000
6.43574	0.00000	4200.87000
6.43958	0.00000	4200.87000
6.44342	0.00000	4200.49700
6.44726	0.00000	4200.49700
6.45109	0.00000	4200.49700
6.45493	0.00000	4200.49700
6.45877	0.00000	4200.49700
6.46261	0.00000	4203.98000
6.46645	0.00000	4203.98000
6.47029	0.00000	4203.98000
6.47413	0.00000	4203.98000
6.47796	0.00000	4203.98000
6.48180	0.00000	4209.81800
6.48562	0.00000	4209.81800
6.48945	0.00000	4209.81800
6.49329	0.00000	4209.81800
6.49713	0.00000	4209.81800
6.50096	0.00000	4209.81800
6.50479	0.00000	4209.05700
6.50863	0.00000	4209.05700
6.51248	0.00000	4209.05700
6.51631	0.00000	4209.05700
6.52015	0.00000	4209.05700
6.52398	0.00000	4212.92500
6.52781	0.00000	4212.92500
6.53165	0.00000	4212.92500
6.53549	0.00000	4212.92500
6.53932	0.00000	4212.92500
6.54316	0.00000	4206.71100
6.54699	0.00000	4206.71100
6.55083	0.00000	4206.71100
6.55466	0.00000	4206.71100
6.55850	0.00000	4206.71100
6.56233	0.00000	4203.60400
6.56617	0.00000	4203.60400
6.57001	0.00000	4203.60400
6.57385	0.00000	4203.60400
6.57769	0.00000	4203.60400
6.58153	0.00000	4206.33200
6.58536	0.00000	4206.33200
6.58919	0.00000	4206.33200
6.59303	0.00000	4206.33200
6.59687	0.00000	4206.33200
6.60070	0.00000	4207.46900
6.60453	0.00000	4207.46900
6.60837	0.00000	4207.46900
6.61222	0.00000	4207.46900
6.61605	0.00000	4207.46900
6.61989	0.00000	4209.05700
6.62371	0.00000	4209.05700
6.62754	0.00000	4209.05700
6.63138	0.00000	4209.05700
6.63523	0.00000	4209.05700
6.63906	0.00000	4209.05700
6.64290	0.00000	4205.95500
6.64674	0.00000	4205.95500
6.65056	0.00000	4205.95500
6.65439	0.00000	4205.95500
6.65821	0.00000	4205.95500
6.66204	0.00000	4206.71100
6.66586	0.00000	4206.71100
6.66968	0.00000	4206.71100
6.67350	0.00000	4206.71100
6.67732	0.00000	4206.71100
6.68115	0.00000	4203.98000
6.68498	0.00000	4203.98000
6.68880	0.00000	4203.98000
6.69262	0.00000	4203.98000
6.69645	0.00000	4203.98000
6.70028	0.00000	4200.49700
6.70410	0.00000	4200.49700
6.70792	0.00000	4200.49700
6.71175	0.00000	4200.49700
6.71557	0.00000	4200.49700
6.71940	0.00000	4207.08900
6.72323	0.00000	4207.08900
6.72706	0.00000	4207.08900
6.73089	0.00000	4207.08900
6.73471	0.00000	4207.08900
6.73853	0.00000	4201.24500
6.74236	0.00000	4201.24500
6.74619	0.00000	4201.24500
6.75002	0.00000	4201.24500
6.75386	0.00000	4201.24500
6.75769	0.00000	4201.24500
6.76151	0.00000	4200.87000
6.76535	0.00000	4200.87000
6.76919	0.00000	4200.87000
6.77301	0.00000	4200.87000
6.77685	0.00000	4200.87000
6.78069	0.00000	4197.76100
6.78452	0.00000	4197.76100
6.78834	0.00000	4197.76100
6.79217	0.00000	4197.76100
6.79599	0.00000	4197.76100
6.79984	0.00000	4203.98000
6.80368	0.00000	4203.98000
6.80752	0.00000	4203.98000
6.81134	0.00000	4203.98000
6.81518	0.00000	4203.98000
6.81902	0.00000	4209.81800
6.82285	0.00000	4209.81800
6.82668	0.00000	4209.81800
6.83052	0.00000	4209.81800
6.83435	0.00000	4209.81800
6.83819	0.00000	4207.08900
6.84202	0.00000	4207.08900
6.84585	0.00000	4207.08900
6.84970	0.00000	4207.08900
6.85354	0.00000	4207.08900
6.85738	0.00000	4209.43700
6.86122	0.00000	4209.43700
6.86505	0.00000	4209.43700
6.86889	0.00000	4209.43700
6.87273	0.00000	4209.43700
6.87657	0.00000	4212.54100
6.88038	0.00000	4212.54100
6.88422	0.00000	4212.54100
6.88805	0.00000	4212.54100
6.89189	0.00000	4212.54100
6.89573	0.00000	4212.54100
6.89956	0.00000	4203.22800
6.90339	0.00000	4203.22800
6.90723	0.00000	4203.22800
6.91105	0.00000	4203.22800
6.91490	0.00000	4203.22800
6.91872	0.00000	4212.92500
6.92256	0.00000	4212.92500
6.92639	0.00000	4212.92500
6.93022	0.00000	4212.92500
6.93406	0.00000	4212.92500
6.93790	0.00000	4200.49700
6.94173	0.00000	4200.49700
6.94556	0.00000	4200.49700
6.94940	0.00000	4200.49700
6.95322	0.00000	4200.49700
6.95706	0.00000	4207.08900
6.96090	0.00000	4207.08900
6.96473	0.00000	4207.08900
6.96857	0.00000	4207.08900
6.97238	0.00000	4207.08900
6.97622	0.00000	4209.05700
6.98005	0.00000	4209.05700
6.98389	0.00000	4209.05700
6.98773	0.00000	4209.05700
6.99156	0.00000	4209.05700
6.99540	0.00000	4209.43700
6.99927	0.00000	4209.43700
7.00311	0.00000	4209.43700
7.00694	0.00000	4209.43700
7.01078	0.00000	4209.43700
7.01462	0.00000	4209.43700
7.01844	0.00000	4208.29900
7.02229	0.00000	4208.29900
7.02612	0.00000	4208.29900
7.02995	0.00000	4208.29900
7.03378	0.00000	4208.29900
7.03763	0.00000	4206.33200
7.04146	0.00000	4206.33200
7.04530	0.00000	4206.33200
7.04914	0.00000	4206.33200
7.05297	0.00000	4206.33200
7.05681	0.00000	4206.71100
7.06065	0.00000	4206.71100
7.06449	0.00000	4206.71100
7.06832	0.00000	4206.71100
7.07216	0.00000	4206.71100
7.07599	0.00000	4215.64600
7.07983	0.00000	4215.64600
7.08367	0.00000	4215.64600
7.08750	0.00000	4215.64600
7.09134	0.00000	4215.64600
7.09517	0.00000	4212.92500
7.09902	0.00000	4212.92500
7.10285	0.00000	4212.92500
7.10668	0.00000	4212.92500
7.11052	0.00000	4212.92500
7.11436	0.00000	4212.54100
7.11821	0.00000	4212.54100
7.12204	0.00000	4212.54100
7.12587	0.00000	4212.54100
7.12971	0.00000	4212.54100
7.13354	0.00000	4212.54100
7.13736	0.00000	4212.54100
7.14120	0.00000	4212.54100
7.14504	0.00000	4212.54100
7.14887	0.00000	4212.54100
7.15271	0.00000	4212.54100
7.15655	0.00000	4209.05700
7.16038	0.00000	4209.05700
7.16422	0.00000	4209.05700
7.16804	0.00000	4209.05700
7.17188	0.00000	4209.05700
7.17572	0.00000	4212.54100
7.17955	0.00000	4212.54100
7.18341	0.00000	4212.54100
7.18724	0.00000	4212.54100
7.19108	0.00000	4212.54100
7.19492	0.00000	4209.43700
7.19876	0.00000	4209.43700
7.20259	0.00000	4209.43700
7.20643	0.00000	4209.43700
7.21026	0.00000	4209.43700
7.21410	0.00000	4216.03100
7.21794	0.00000	4216.03100
7.22177	0.00000	4216.03100
7.22561	0.00000	4216.03100
7.22945	0.00000	4216.03100
7.23329	0.00000	4209.43700
7.23714	0.00000	4209.43700
7.24098	0.00000	4209.43700
7.24481	0.00000	4209.43700
7.24865	0.00000	4209.43700
7.25248	0.00000	4207.08900
7.25633	0.00000	4207.08900
7.26018	0.00000	4207.08900
7.26402	0.00000	4207.08900
7.26786	0.00000	4207.08900
7.27169	0.00000	4209.05700
7.27551	0.00000	4209.05700
7.27935	0.00000	4209.05700
7.28317	0.00000	4209.05700
7.28701	0.00000	4209.05700
7.29084	0.00000	4209.05700
7.29468	0.00000	4209.05700
7.29852	0.00000	4209.05700
7.30235	0.00000	4209.05700
7.30619	0.00000	4209.05700
7.31002	0.00000	4209.05700
7.31387	0.00000	4206.33200
7.31770	0.00000	4206.33200
7.32153	0.00000	4206.33200
7.32537	0.00000	4206.33200
7.32921	0.00000	4206.33200
7.33304	0.00000	4209.43700
7.33688	0.00000	4209.43700
7.34071	0.00000	4209.43700
7.34454	0.00000	4209.43700
7.34838	0.00000	4209.43700
7.35222	0.00000	4200.87000
7.35605	0.00000	4200.87000
7.35989	0.00000	4200.87000
7.36371	0.00000	4200.87000
7.36755	0.00000	4200.87000
7.37138	0.00000	4203.60400
7.37523	0.00000	4203.60400
7.37907	0.00000	4203.60400
7.38291	0.00000	4203.60400
7.38674	0.00000	4203.60400
7.39058	0.00000	4209.05700
7.39441	0.00000	4209.05700
7.39825	0.00000	4209.05700
7.40209	0.00000	4209.05700
7.40592	0.00000	4209.05700
7.40975	0.00000	4209.05700
7.41358	0.00000	4202.85300
7.41742	0.00000	4202.85300
7.42125	0.00000	4202.85300
7.42509	0.00000	4202.85300
7.42892	0.00000	4202.85300
7.43276	0.00000	4209.05700
7.43659	0.00000	4209.05700
7.44043	0.00000	4209.05700
7.44427	0.00000	4209.05700
7.44810	0.00000	4209.05700
7.45194	0.00000	4212.15800
7.45578	0.00000	4212.15800
7.45961	0.00000	4212.15800
7.46344	0.00000	4212.15800
7.46728	0.00000	4212.15800
7.47112	0.00000	4209.43700
7.47495	0.00000	4209.43700
7.47879	0.00000	4209.43700
7.48263	0.00000	4209.43700
7.48646	0.00000	4209.43700
7.49030	0.00000	4212.92500
7.49413	0.00000	4212.92500
7.49797	0.00000	4212.92500
7.50180	0.00000	4212.92500
7.50564	0.00000	4212.92500
7.50946	0.00000	4203.98000
7.51330	0.00000	4203.98000
7.51713	0.00000	4203.98000
7.52097	0.00000	4203.98000
7.52480	0.00000	4203.98000
7.52864	0.00000	4215.64600
7.53247	0.00000	4215.64600
7.53630	0.00000	4215.64600
7.54014	0.00000	4215.64600
7.54397	0.00000	4215.64600
7.54781	0.00000	4215.64600
7.55164	0.00000	4208.67700
7.55547	0.00000	4208.67700
7.55930	0.00000	4208.67700
7.56314	0.00000	4208.67700
7.56697	0.00000	4208.67700
7.57081	0.00000	4206.71100
7.57464	0.00000	4206.71100
7.57848	0.00000	4206.71100
7.58232	0.00000	4206.71100
7.58617	0.00000	4206.71100
7.59001	0.00000	4203.60400
7.59384	0.00000	4203.60400
7.59768	0.00000	4203.60400
7.60152	0.00000	4203.60400
7.60535	0.00000	4203.60400
7.60919	0.00000	4206.33200
7.61303	0.00000	4206.33200
7.61686	0.00000	4206.33200
7.62070	0.00000	4206.33200
7.62453	0.00000	4206.33200
7.62837	0.00000	4206.33200
7.63221	0.00000	4206.33200
7.63604	0.00000	4206.33200
7.63988	0.00000	4206.33200
7.64371	0.00000	4206.33200
7.64755	0.00000	4212.54100
7.65140	0.00000	4212.54100
7.65524	0.00000	4212.54100
7.65907	0.00000	4212.54100
7.66290	0.00000	4212.54100
7.66674	0.00000	4212.54100
7.67057	0.00000	4205.95500
7.67440	0.00000	4205.95500
7.67824	0.00000	4205.95500
7.68208	0.00000	4205.95500
7.68592	0.00000	4205.95500
7.68976	0.00000	4207.08900
7.69360	0.00000	4207.08900
7.69744	0.00000	4207.08900
7.70127	0.00000	4207.08900
7.70511	0.00000	4207.08900
7.70895	0.00000	4206.33200
7.71278	0.00000	4206.33200
7.71661	0.00000	4206.33200
7.72045	0.00000	4206.33200
7.72429	0.00000	4206.33200
7.72813	0.00000	4212.54100
7.73197	0.00000	4212.54100
7.73580	0.00000	4212.54100
7.73964	0.00000	4212.54100
7.74347	0.00000	4212.54100
7.74730	0.00000	4209.05700
7.75113	0.00000	4209.05700
7.75498	0.00000	4209.05700
7.75881	0.00000	4209.05700
7.76264	0.00000	4209.05700
7.76648	0.00000	4212.54100
7.77033	0.00000	4212.54100
7.77416	0.00000	4212.54100
7.77799	0.00000	4212.54100
7.78183	0.00000	4212.54100
7.78566	0.00000	4211.77700
7.78949	0.00000	4211.77700
7.79332	0.00000	4211.77700
7.79716	0.00000	4211.77700
7.80099	0.00000	4211.77700
7.80483	0.00000	4211.77700
7.80866	0.00000	4211.77700
7.81250	0.00000	4211.77700
7.81633	0.00000	4211.77700
7.82018	0.00000	4211.77700
7.82401	0.00000	4211.77700
7.82784	0.00000	4209.43700
7.83167	0.00000	4209.43700
7.83551	0.00000	4209.43700
7.83934	0.00000	4209.43700
7.84317	0.00000	4209.43700
7.84701	0.00000	4200.87000
7.85084	0.00000	4200.87000
7.85467	0.00000	4200.87000
7.85851	0.00000	4200.87000
7.86234	0.00000	4200.87000
7.86617	0.00000	4212.54100
7.87001	0.00000	4212.54100
7.87384	0.00000	4212.54100
7.87767	0.00000	4212.54100
7.88151	0.00000	4212.54100
7.88534	0.00000	4212.15800
7.88918	0.00000	4212.15800
7.89302	0.00000	4212.15800
7.89686	0.00000	4212.15800
7.90069	0.00000	4212.15800
7.90452	0.00000	4212.15800
7.90837	0.00000	4212.15800
7.91220	0.00000	4212.15800
7.91603	0.00000	4212.15800
7.91986	0.00000	4212.15800
7.92370	0.00000	4212.15800
7.92753	0.00000	4208.67700
7.93138	0.00000	4208.67700
7.93521	0.00000	4208.67700
7.93904	0.00000	4208.67700
7.94288	0.00000	4208.67700
7.94671	0.00000	4217.97500
7.95054	0.00000	4217.97500
7.95438	0.00000	4217.97500
7.95821	0.00000	4217.97500
7.96204	0.00000	4217.97500
7.96588	0.00000	4212.15800
7.96971	0.00000	4212.15800
7.97354	0.00000	4212.15800
7.97737	0.00000	4212.15800
7.98121	0.00000	4212.15800
7.98504	0.00000	4215.64600
7.98887	0.00000	4215.64600
7.99270	0.00000	4215.64600
7.99654	0.00000	4215.64600
8.00037	0.00000	4215.64600
8.00422	0.00000	4209.43700
8.00805	0.00000	4209.43700
8.01189	0.00000	4209.43700
8.01572	0.00000	4209.43700
8.01955	0.00000	4209.43700
8.02339	0.00000	4203.98000
8.02722	0.00000	4203.98000
8.03106	0.00000	4203.98000
8.03490	0.00000	4203.98000
8.03873	0.00000	4203.98000
8.04256	0.00000	4215.26000
8.04638	0.00000	4215.26000
8.05021	0.00000	4215.26000
8.05405	0.00000	4215.26000
8.05788	0.00000	4215.26000
8.06171	0.00000	4215.26000
8.06554	0.00000	4211.77700
8.06938	0.00000	4211.77700
8.07321	0.00000	4211.77700
8.07704	0.00000	4211.77700
8.08088	0.00000	4211.77700
8.08471	0.00000	4215.64600
8.08854	0.00000	4215.64600
8.09238	0.00000	4215.64600
8.09622	0.00000	4215.64600
8.10004	0.00000	4215.64600
8.10388	0.00000	4212.54100
8.10771	0.00000	4212.54100
8.11155	0.00000	4212.54100
8.11538	0.00000	4212.54100
8.11921	0.00000	4212.54100
8.12305	0.00000	4209.05700
8.12688	0.00000	4209.05700
8.13071	0.00000	4209.05700
8.13454	0.00000	4209.05700
8.13838	0.00000	4209.05700
8.14221	0.00000	4218.36200
8.14604	0.00000	4218.36200
8.14988	0.00000	4218.36200
8.15371	0.00000	4218.36200
8.15754	0.00000	4218.36200
8.16137	0.00000	4212.15800
8.16522	0.00000	4212.15800
8.16906	0.00000	4212.15800
8.17289	0.00000	4212.15800
8.17674	0.00000	4212.15800
8.18058	0.00000	4212.15800
8.18438	0.00000	4205.57800
8.18823	0.00000	4205.57800
8.19207	0.00000	4205.57800
8.19591	0.00000	4205.57800
8.19975	0.00000	4205.57800
8.20359	0.00000	4214.87600
8.20744	0.00000	4214.87600
8.21126	0.00000	4214.87600
8.21509	0.00000	4214.87600
8.21894	0.00000	4214.87600
8.22277	0.00000	4203.60400
8.22661	0.00000	4203.60400
8.23044	0.00000	4203.60400
8.23427	0.00000	4203.60400
8.23810	0.00000	4203.60400
8.24193	0.00000	4209.81800
8.24577	0.00000	4209.81800
8.24960	0.00000	4209.81800
8.25343	0.00000	4209.81800
8.25727	0.00000	4209.81800
8.26111	0.00000	4206.71100
8.26494	0.00000	4206.71100
8.26877	0.00000	4206.71100
8.27260	0.00000	4206.71100
8.27643	0.00000	4206.71100
8.28027	0.00000	4209.43700
8.28411	0.00000	4209.43700
8.28794	0.00000	4209.43700
8.29177	0.00000	4209.43700
8.29561	0.00000	4209.43700
8.29945	0.00000	4212.15800
8.30328	0.00000	4212.15800
8.30711	0.00000	4212.15800
8.31095	0.00000	4212.15800
8.31477	0.00000	4212.15800
8.31860	0.00000	4212.15800
8.32243	0.00000	4203.22800
8.32627	0.00000	4203.22800
8.33010	0.00000	4203.22800
8.33394	0.00000	4203.22800
8.33777	0.00000	4203.22800
8.34160	0.00000	4209.05700
8.34545	0.00000	4209.05700
8.34928	0.00000	4209.05700
8.35311	0.00000	4209.05700
8.35695	0.00000	4209.05700
8.36079	0.00000	4211.77700
8.36462	0.00000	4211.77700
8.36847	0.00000	4211.77700
8.37231	0.00000	4211.77700
8.37614	0.00000	4211.77700
8.37997	0.00000	4215.26000
8.38381	0.00000	4215.26000
8.38764	0.00000	4215.26000
8.39147	0.00000	4215.26000
8.39531	0.00000	4215.26000
8.39915	0.00000	4215.26000
8.40298	0.00000	4215.26000
8.40683	0.00000	4215.26000
8.41066	0.00000	4215.26000
8.41449	0.00000	4215.26000
8.41833	0.00000	4209.81800
8.42217	0.00000	4209.81800
8.42599	0.00000	4209.81800
8.42983	0.00000	4209.81800
8.43366	0.00000	4209.81800
8.43749	0.00000	4209.81800
8.44131	0.00000	4211.39500
8.44516	0.00000	4211.39500
8.44899	0.00000	4211.39500
8.45282	0.00000	4211.39500
8.45666	0.00000	4211.39500
8.46049	0.00000	4212.92500
8.46433	0.00000	4212.92500
8.46818	0.00000	4212.92500
8.47202	0.00000	4212.92500
8.47586	0.00000	4212.92500
8.47969	0.00000	4218.75000
8.48352	0.00000	4218.75000
8.48734	0.00000	4218.75000
8.49118	0.00000	4218.75000
8.49502	0.00000	4218.75000
8.49886	0.00000	4215.26000
8.50270	0.00000	4215.26000
8.50653	0.00000	4215.26000
8.51036	0.00000	4215.26000
8.51420	0.00000	4215.26000
8.51804	0.00000	4209.43700
8.52187	0.00000	4209.43700
8.52570	0.00000	4209.43700
8.52954	0.00000	4209.43700
8.53337	0.00000	4209.43700
8.53720	0.00000	4215.64600
8.54105	0.00000	4215.64600
8.54489	0.00000	4215.64600
8.54871	0.00000	4215.64600
8.55255	0.00000	4215.64600
8.55638	0.00000	4211.77700
8.56020	0.00000	4211.77700
8.56405	0.00000	4211.77700
8.56788	0.00000	4211.77700
8.57172	0.00000	4211.77700
8.57556	0.00000	4211.77700
8.57939	0.00000	4209.05700
8.58322	0.00000	4209.05700
8.58705	0.00000	4209.05700
8.59089	0.00000	4209.05700
8.59472	0.00000	4209.05700
8.59855	0.00000	4212.54100
8.60239	0.00000	4212.54100
8.60622	0.00000	4212.54100
8.61005	0.00000	4212.54100
8.61388	0.00000	4212.54100
8.61772	0.00000	4205.95500
8.62156	0.00000	4205.95500
8.62540	0.00000	4205.95500
8.62924	0.00000	4205.95500
8.63307	0.00000	4205.95500
8.63690	0.00000	4215.26000
8.64073	0.00000	4215.26000
8.64456	0.00000	4215.26000
8.64838	0.00000	4215.26000
8.65222	0.00000	4215.26000
8.65606	0.00000	4203.60400
8.65991	0.00000	4203.60400
8.66374	0.00000	4203.60400
8.66757	0.00000	4203.60400
8.67140	0.00000	4203.60400
8.67524	0.00000	4218.36200
8.67908	0.00000	4218.36200
8.68292	0.00000	4218.36200
8.68676	0.00000	4218.36200
8.69059	0.00000	4218.36200
8.69442	0.00000	4218.36200
8.69825	0.00000	4208.67700
8.70209	0.00000	4208.67700
8.70593	0.00000	4208.67700
8.70976	0.00000	4208.67700
8.71360	0.00000	4208.67700
8.71743	0.00000	4206.33200
8.72127	0.00000	4206.33200
8.72511	0.00000	4206.33200
8.72895	0.00000	4206.33200
8.73278	0.00000	4206.33200
8.73661	0.00000	4215.64600
8.74045	0.00000	4215.64600
8.74430	0.00000	4215.64600
8.74812	0.00000	4215.64600
8.75196	0.00000	4215.64600
8.75579	0.00000	4214.87600
8.75961	0.00000	4214.87600
8.76345	0.00000	4214.87600
8.76728	0.00000	4214.87600
8.77112	0.00000	4214.87600
8.77496	0.00000	4209.81800
8.77880	0.00000	4209.81800
8.78263	0.00000	4209.81800
8.78647	0.00000	4209.81800
8.79030	0.00000	4209.81800
8.79414	0.00000	4209.43700
8.79799	0.00000	4209.43700
8.80182	0.00000	4209.43700
8.80566	0.00000	4209.43700
8.80949	0.00000	4209.43700
8.81332	0.00000	4209.43700
8.81714	0.00000	4208.67700
8.82096	0.00000	4208.67700
8.82480	0.00000	4208.67700
8.82864	0.00000	4208.67700
8.83247	0.00000	4208.67700
8.83630	0.00000	4209.81800
8.84013	0.00000	4209.81800
8.84396	0.00000	4209.81800
8.84779	0.00000	4209.81800
8.85163	0.00000	4209.81800
8.85546	0.00000	4209.05700
8.85929	0.00000	4209.05700
8.86312	0.00000	4209.05700
8.86696	0.00000	4209.05700
8.87079	0.00000	4209.05700
8.87463	0.00000	4212.54100
8.87847	0.00000	4212.54100
8.88230	0.00000	4212.54100
8.88614	0.00000	4212.54100
8.88997	0.00000	4212.54100
8.89382	0.00000	4209.43700
8.89766	0.00000	4209.43700
8.90151	0.00000	4209.43700
8.90534	0.00000	4209.43700
8.90917	0.00000	4209.43700
8.91300	0.00000	4209.81800
8.91684	0.00000	4209.81800
8.92067	0.00000	4209.81800
8.92450	0.00000	4209.81800
8.92834	0.00000	4209.81800
8.93217	0.00000	4212.54100
8.93601	0.00000	4212.54100
8.93984	0.00000	4212.54100
8.94367	0.00000	4212.54100
8.94750	0.00000	4212.54100
8.95134	0.00000	4212.54100
8.95516	0.00000	4209.05700
8.95900	0.00000	4209.05700
8.96283	0.00000	4209.05700
8.96667	0.00000	4209.05700
8.97051	0.00000	4209.05700
8.97434	0.00000	4212.54100
8.97818	0.00000	4212.54100
8.98201	0.00000	4212.54100
8.98584	0.00000	4212.54100
8.98968	0.00000	4212.54100
8.99351	0.00000	4209.43700
8.99734	0.00000	4209.43700
9.00117	0.00000	4209.43700
9.00501	0.00000	4209.43700
9.00884	0.00000	4209.43700
9.01267	0.00000	4206.71100
9.01651	0.00000	4206.71100
9.02034	0.00000	4206.71100
9.02417	0.00000	4206.71100
9.02801	0.00000	4206.71100
9.03184	0.00000	4212.15800
9.03567	0.00000	4212.15800
9.03950	0.00000	4212.15800
9.04334	0.00000	4212.15800
9.04717	0.00000	4212.15800
9.05101	0.00000	4206.33200
9.05487	0.00000	4206.33200
9.05870	0.00000	4206.33200
9.06253	0.00000	4206.33200
9.06637	0.00000	4206.33200
9.07020	0.00000	4206.33200
9.07403	0.00000	4208.29900
9.07787	0.00000	4208.29900
9.08170	0.00000	4208.29900
9.08553	0.00000	4208.29900
9.08936	0.00000	4208.29900
9.09320	0.00000	4212.15800
9.09703	0.00000	4212.15800
9.10086	0.00000	4212.15800
9.10470	0.00000	4212.15800
9.10854	0.00000	4212.15800
9.11238	0.00000	4212.15800
9.11621	0.00000	4212.15800
9.12005	0.00000	4212.15800
9.12388	0.00000	4212.15800
9.12773	0.00000	4212.15800
9.13156	0.00000	4206.71100
9.13540	0.00000	4206.71100
9.13923	0.00000	4206.71100
9.14306	0.00000	4206.71100
9.14690	0.00000	4206.71100
9.15073	0.00000	4215.64600
9.15456	0.00000	4215.64600
9.15840	0.00000	4215.64600
9.16223	0.00000	4215.64600
9.16607	0.00000	4215.64600
9.16991	0.00000	4209.05700
9.17375	0.00000	4209.05700
9.17758	0.00000	4209.05700
9.18142	0.00000	4209.05700
9.18525	0.00000	4209.05700
9.18908	0.00000	4218.75000
9.19290	0.00000	4218.75000
9.19673	0.00000	4218.75000
9.20057	0.00000	4218.75000
9.20438	0.00000	4218.75000
9.20821	0.00000	4218.75000
9.21204	0.00000	4209.05700
9.21587	0.00000	4209.05700
9.21971	0.00000	4209.05700
9.22356	0.00000	4209.05700
9.22739	0.00000	4209.05700
9.23122	0.00000	4214.87600
9.23506	0.00000	4214.87600
9.23889	0.00000	4214.87600
9.24272	0.00000	4214.87600
9.24656	0.00000	4214.87600
9.25039	0.00000	4215.26000
9.25422	0.00000	4215.26000
9.25806	0.00000	4215.26000
9.26189	0.00000	4215.26000
9.26573	0.00000	4215.26000
9.26956	0.00000	4215.64600
9.27339	0.00000	4215.64600
9.27722	0.00000	4215.64600
9.28106	0.00000	4215.64600
9.28489	0.00000	4215.64600
9.28872	0.00000	4215.64600
9.29256	0.00000	4215.64600
9.29638	0.00000	4215.64600
9.30021	0.00000	4215.64600
9.30405	0.00000	4215.64600
9.30788	0.00000	4212.54100
9.31173	0.00000	4212.54100
9.31556	0.00000	4212.54100
9.31939	0.00000	4212.54100
9.32323	0.00000	4212.54100
9.32706	0.00000	4212.54100
9.33089	0.00000	4217.58800
9.33472	0.00000	4217.58800
9.33855	0.00000	4217.58800
9.34239	0.00000	4217.58800
9.34622	0.00000	4217.58800
9.35006	0.00000	4200.87000
9.35389	0.00000	4200.87000
9.35772	0.00000	4200.87000
9.36154	0.00000	4200.87000
9.36538	0.00000	4200.87000
9.36921	0.00000	4209.81800
9.37304	0.00000	4209.81800
9.37688	0.00000	4209.81800
9.38071	0.00000	4209.81800
9.38454	0.00000	4209.81800
9.38838	0.00000	4206.71100
9.39221	0.00000	4206.71100
9.39605	0.00000	4206.71100
9.39988	0.00000	4206.71100
9.40371	0.00000	4206.71100
9.40755	0.00000	4212.15800
9.41138	0.00000	4212.15800
9.41521	0.00000	4212.15800
9.41904	0.00000	4212.15800
9.42287	0.00000	4212.15800
9.42670	0.00000	4209.43700
9.43053	0.00000	4209.43700
9.43437	0.00000	4209.43700
9.43820	0.00000	4209.43700
9.44203	0.00000	4209.43700
9.44587	0.00000	4205.57800
9.44969	0.00000	4205.57800
9.45353	0.00000	4205.57800
9.45737	0.00000	4205.57800
9.46120	0.00000	4205.57800
9.46503	0.00000	4205.57800
9.46887	0.00000	4205.95500
9.47270	0.00000	4205.95500
9.47654	0.00000	4205.95500
9.48037	0.00000	4205.95500
9.48420	0.00000	4205.95500
9.48803	0.00000	4209.43700
9.49187	0.00000	4209.43700
9.49570	0.00000	4209.43700
9.49953	0.00000	4209.43700
9.50337	0.00000	4209.43700
9.50721	0.00000	4206.33200
9.51104	0.00000	4206.33200
9.51487	0.00000	4206.33200
9.51870	0.00000	4206.33200
9.52254	0.00000	4206.33200
9.52637	0.00000	4211.77700
9.53020	0.00000	4211.77700
9.53404	0.00000	4211.77700
9.53787	0.00000	4211.77700
9.54170	0.00000	4211.77700
9.54554	0.00000	4209.43700
9.54938	0.00000	4209.43700
9.55321	0.00000	4209.43700
9.55704	0.00000	4209.43700
9.56088	0.00000	4209.43700
9.56471	0.00000	4215.64600
9.56854	0.00000	4215.64600
9.57238	0.00000	4215.64600
9.57621	0.00000	4215.64600
9.58004	0.00000	4215.64600
9.58387	0.00000	4215.64600
9.58770	0.00000	4206.33200
9.59154	0.00000	4206.33200
9.59538	0.00000	4206.33200
9.59921	0.00000	4206.33200
9.60304	0.00000	4206.33200
9.60688	0.00000	4206.71100
9.61071	0.00000	4206.71100
9.61454	0.00000	4206.71100
9.61838	0.00000	4206.71100
9.62221	0.00000	4206.71100
9.62605	0.00000	4212.15800
9.62988	0.00000	4212.15800
9.63372	0.00000	4212.15800
9.63755	0.00000	4212.15800
9.64139	0.00000	4212.15800
9.64523	0.00000	4215.26000
9.64907	0.00000	4215.26000
9.65291	0.00000	4215.26000
9.65676	0.00000	4215.26000
9.66059	0.00000	4215.26000
9.66438	0.00000	4218.36200
9.66821	0.00000	4218.36200
9.67205	0.00000	4218.36200
9.67588	0.00000	4218.36200
9.67971	0.00000	4218.36200
9.68356	0.00000	4210.19900
9.68739	0.00000	4210.19900
9.69122	0.00000	4210.19900
9.69506	0.00000	4210.19900
9.69889	0.00000	4210.19900
9.70272	0.00000	4210.19900
9.70655	0.00000	4207.92000
9.71039	0.00000	4207.92000
9.71422	0.00000	4207.92000
9.71805	0.00000	4207.92000
9.72189	0.00000	4207.92000
9.72572	0.00000	4218.36200
9.72955	0.00000	4218.36200
9.73338	0.00000	4218.36200
9.73723	0.00000	4218.36200
9.74106	0.00000	4218.36200
9.74488	0.00000	4209.43700
9.74873	0.00000	4209.43700
9.75255	0.00000	4209.43700
9.75638	0.00000	4209.43700
9.76022	0.00000	4209.43700
9.76406	0.00000	4209.43700
9.76788	0.00000	4209.43700
9.77171	0.00000	4209.43700
9.77555	0.00000	4209.43700
9.77938	0.00000	4209.43700
9.78323	0.00000	4207.08900
9.78707	0.00000	4207.08900
9.79090	0.00000	4207.08900
9.79474	0.00000	4207.08900
9.79858	0.00000	4207.08900
9.80241	0.00000	4211.77700
9.80626	0.00000	4211.77700
9.81009	0.00000	4211.77700
9.81392	0.00000	4211.77700
9.81775	0.00000	4211.77700
9.82159	0.00000	4209.43700
9.82541	0.00000	4209.43700
9.82924	0.00000	4209.43700
9.83308	0.00000	4209.43700
9.83691	0.00000	4209.43700
9.84074	0.00000	4209.43700
9.84457	0.00000	4217.97500
9.84838	0.00000	4217.97500
9.85222	0.00000	4217.97500
9.85604	0.00000	4217.97500
9.85988	0.00000	4217.97500
9.86371	0.00000	4221.46400
9.86754	0.00000	4221.46400
9.87138	0.00000	4221.46400
9.87522	0.00000	4221.46400
9.87905	0.00000	4221.46400
9.88289	0.00000	4209.43700
9.88673	0.00000	4209.43700
9.89057	0.00000	4209.43700
9.89440	0.00000	4209.43700
9.89823	0.00000	4209.43700
9.90206	0.00000	4206.33200
9.90589	0.00000	4206.33200
9.90973	0.00000	4206.33200
9.91356	0.00000	4206.33200
9.91739	0.00000	4206.33200
9.92122	0.00000	4215.26000
9.92505	0.00000	4215.26000
9.92888	0.00000	4215.26000
9.93271	0.00000	4215.26000
9.93655	0.00000	4215.26000
9.94037	0.00000	4209.43700
9.94420	0.00000	4209.43700
9.94804	0.00000	4209.43700
9.95186	0.00000	4209.43700
9.95569	0.00000	4209.43700
9.95954	0.00000	4209.43700
9.96337	0.00000	4208.67700
9.96720	0.00000	4208.67700
9.97104	0.00000	4208.67700
9.97488	0.00000	4208.67700
9.97870	0.00000	4208.67700
9.98254	0.00000	4206.71100
9.98638	0.00000	4206.71100
9.99021	0.00000	4206.71100
9.99405	0.00000	4206.71100
9.99790	0.00000	4206.71100
