Time (s)   Thrust (N)   RPM
0.00028	0.00000	4507.09700
0.00417	0.00000	4507.09700
0.00803	0.00000	4507.09700
0.01186	0.00000	4507.09700
0.01570	0.00000	4507.09700
0.01954	0.00000	4503.50400
0.02342	0.00000	4503.50400
0.02727	0.00000	4503.50400
0.03111	0.00000	4503.50400
0.03493	0.00000	4503.50400
0.03876	0.00000	4452.75600
0.04259	0.00000	4452.75600
0.04641	0.00000	4452.75600
0.05023	0.00000	4452.75600
0.05408	0.00000	4452.75600
0.05791	0.00000	4452.75600
0.06175	0.00000	4316.72000
0.06558	0.00000	4316.72000
0.06941	0.00000	4316.72000
0.07323	0.00000	4316.72000
0.07706	0.00000	4316.72000
0.08090	0.00000	4206.71100
0.08473	0.00000	4206.71100
0.08856	0.00000	4206.71100
0.09238	0.00000	4206.71100
0.09621	0.00000	4206.71100
0.10002	0.00000	4101.85900
0.10385	0.00000	4101.85900
0.10768	0.00000	4101.85900
0.11150	0.00000	4101.85900
0.11532	0.00000	4101.85900
0.11914	0.00000	4033.01800
0.12297	0.00000	4033.01800
0.12680	0.00000	4033.01800
0.13061	0.00000	4033.01800
0.13444	0.00000	4033.01800
0.13827	0.00000	3958.87700
0.14211	0.00000	3958.87700
0.14594	0.00000	3958.87700
0.14976	0.00000	3958.87700
0.15358	0.00000	3958.87700
0.15741	0.00000	3904.87700
0.16124	0.00000	3904.87700
0.16507	0.00000	3904.87700
0.16891	0.00000	3904.87700
0.17273	0.00000	3847.18400
0.17655	0.00000	3847.18400
0.18038	0.00000	3847.18400
0.18420	0.00000	3847.18400
0.18802	0.00000	3847.18400
0.19186	0.00000	3800.53900
0.19569	0.00000	3800.53900
0.19952	0.00000	3800.53900
0.20334	0.00000	3800.53900
0.20717	0.00000	3800.53900
0.21100	0.00000	3763.56200
0.21482	0.00000	3763.56200
0.21864	0.00000	3763.56200
0.22248	0.00000	3763.56200
0.22630	0.00000	3763.56200
0.23013	0.00000	3719.29000
0.23396	0.00000	3719.29000
0.23779	0.00000	3719.29000
0.24161	0.00000	3719.29000
0.24544	0.00000	3691.40600
0.24927	0.00000	3691.40600
0.25309	0.00000	3691.40600
0.25692	0.00000	3691.40600
0.26075	0.00000	3691.40600
0.26457	0.00000	3667.27900
0.26840	0.00000	3667.27900
0.27223	0.00000	3667.27900
0.27607	0.00000	3667.27900
0.27990	0.00000	3667.27900
0.28373	0.00000	3649.58400
0.28757	0.00000	3649.58400
0.29141	0.00000	3649.58400
0.29524	0.00000	3649.58400
0.29907	0.00000	3620.68900
0.30290	0.00000	3620.68900
0.30673	0.00000	3620.68900
0.31056	0.00000	3620.68900
0.31439	0.00000	3620.68900
0.31822	0.00000	3610.85300
0.32205	0.00000	3610.85300
0.32587	0.00000	3610.85300
0.32970	0.00000	3610.85300
0.33354	0.00000	3588.33100
0.33736	0.00000	3588.33100
0.34119	0.00000	3588.33100
0.34502	0.00000	3588.33100
0.34885	0.00000	3588.33100
0.35267	0.00000	3578.59100
0.35651	0.00000	3578.59100
0.36034	0.00000	3578.59100
0.36417	0.00000	3578.59100
0.36799	0.00000	3578.59100
0.37181	0.00000	3567.07300
0.37563	0.00000	3567.07300
0.37946	0.00000	3567.07300
0.38329	0.00000	3567.07300
0.38713	0.00000	3555.42400
0.39097	0.00000	3555.42400
0.39480	0.00000	3555.42400
0.39863	0.00000	3555.42400
0.40246	0.00000	3555.42400
0.40628	0.00000	3542.25300
0.41011	0.00000	3542.25300
0.41395	0.00000	3542.25300
0.41779	0.00000	3542.25300
0.42161	0.00000	3533.79000
0.42544	0.00000	3533.79000
0.42927	0.00000	3533.79000
0.43309	0.00000	3533.79000
0.43691	0.00000	3533.79000
0.44075	0.00000	3531.07300
0.44458	0.00000	3531.07300
0.44841	0.00000	3531.07300
0.45224	0.00000	3531.07300
0.45606	0.00000	3518.95700
0.45988	0.00000	3518.95700
0.46371	0.00000	3518.95700
0.46754	0.00000	3518.95700
0.47137	0.00000	3518.95700
0.47519	0.00000	3520.04700
0.47903	0.00000	3520.04700
0.48285	0.00000	3520.04700
0.48667	0.00000	3520.04700
0.49050	0.00000	3511.16900
0.49433	0.00000	3511.16900
0.49816	0.00000	3511.16900
0.50198	0.00000	3511.16900
0.50580	0.00000	3511.16900
0.50962	0.00000	3501.65500
0.51345	0.00000	3501.65500
0.51727	0.00000	3501.65500
0.52109	0.00000	3501.65500
0.52491	0.00000	3499.76100
0.52874	0.00000	3499.76100
0.53256	0.00000	3499.76100
0.53639	0.00000	3499.76100
0.54022	0.00000	3499.76100
0.54404	0.00000	3494.07600
0.54786	0.00000	3494.07600
0.55169	0.00000	3494.07600
0.55551	0.00000	3494.07600
0.55934	0.00000	3492.12000
0.56316	0.00000	3492.12000
0.56699	0.00000	3492.12000
0.57081	0.00000	3492.12000
0.57463	0.00000	3492.12000
0.57846	0.00000	3490.27500
0.58228	0.00000	3490.27500
0.58611	0.00000	3490.27500
0.58994	0.00000	3490.27500
0.59376	0.00000	3485.21000
0.59760	0.00000	3485.21000
0.60143	0.00000	3485.21000
0.60525	0.00000	3485.21000
0.60908	0.00000	3485.21000
0.61292	0.00000	3479.60100
0.61674	0.00000	3479.60100
0.62055	0.00000	3479.60100
0.62438	0.00000	3479.60100
0.62821	0.00000	3481.11800
0.63204	0.00000	3481.11800
0.63586	0.00000	3481.11800
0.63968	0.00000	3481.11800
0.64351	0.00000	3481.11800
0.64733	0.00000	3482.65200
0.65116	0.00000	3482.65200
0.65499	0.00000	3482.65200
0.65881	0.00000	3482.65200
0.66264	0.00000	3473.94800
0.66647	0.00000	3473.94800
0.67029	0.00000	3473.94800
0.67411	0.00000	3473.94800
0.67794	0.00000	3473.94800
0.68177	0.00000	3475.78300
0.68560	0.00000	3475.78300
0.68942	0.00000	3475.78300
0.69325	0.00000	3475.78300
0.69707	0.00000	3470.09500
0.70090	0.00000	3470.09500
0.70472	0.00000	3470.09500
0.70854	0.00000	3470.09500
0.71237	0.00000	3470.09500
0.71619	0.00000	3475.52300
0.72001	0.00000	3475.52300
0.72383	0.00000	3475.52300
0.72766	0.00000	3475.52300
0.73148	0.00000	3473.68400
0.73531	0.00000	3473.68400
0.73913	0.00000	3473.68400
0.74295	0.00000	3473.68400
0.74677	0.00000	3473.68400
0.75060	0.00000	3471.95800
0.75442	0.00000	3471.95800
0.75825	0.00000	3471.95800
0.76208	0.00000	3471.95800
0.76590	0.00000	3470.09500
0.76973	0.00000	3470.09500
0.77355	0.00000	3470.09500
0.77738	0.00000	3470.09500
0.78120	0.00000	3470.09500
0.78503	0.00000	3475.00000
0.78885	0.00000	3475.00000
0.79267	0.00000	3475.00000
0.79649	0.00000	3475.00000
0.80031	0.00000	3466.23500
0.80415	0.00000	3466.23500
0.80797	0.00000	3466.23500
0.81180	0.00000	3466.23500
0.81562	0.00000	3466.23500
0.81945	0.00000	3468.12500
0.82327	0.00000	3468.12500
0.82709	0.00000	3468.12500
0.83092	0.00000	3468.12500
0.83473	0.00000	3470.09500
0.83856	0.00000	3470.09500
0.84239	0.00000	3470.09500
0.84621	0.00000	3470.09500
0.85003	0.00000	3470.09500
0.85386	0.00000	3468.66100
0.85768	0.00000	3468.66100
0.86151	0.00000	3468.66100
0.86534	0.00000	3468.66100
0.86916	0.00000	3469.82700
0.87300	0.00000	3469.82700
0.87682	0.00000	3469.82700
0.88066	0.00000	3469.82700
0.88449	0.00000	3469.82700
0.88832	0.00000	3475.26100
0.89215	0.00000	3475.26100
0.89598	0.00000	3475.26100
0.89981	0.00000	3475.26100
0.90364	0.00000	3469.55800
0.90746	0.00000	3469.55800
0.91128	0.00000	3469.55800
0.91511	0.00000	3469.55800
0.91893	0.00000	3469.55800
0.92275	0.00000	3468.39300
0.92658	0.00000	3468.39300
0.93041	0.00000	3468.39300
0.93424	0.00000	3468.39300
0.93806	0.00000	3469.82700
0.94189	0.00000	3469.82700
0.94571	0.00000	3469.82700
0.94953	0.00000	3469.82700
0.95337	0.00000	3469.82700
0.95719	0.00000	3468.12500
0.96102	0.00000	3468.12500
0.96484	0.00000	3468.12500
0.96866	0.00000	3468.12500
0.97248	0.00000	3466.23500
0.97630	0.00000	3466.23500
0.98013	0.00000	3466.23500
0.98395	0.00000	3466.23500
0.98778	0.00000	3466.23500
0.99160	0.00000	3464.55700
0.99543	0.00000	3464.55700
0.99925	0.00000	3464.55700
1.00307	0.00000	3464.55700
1.00690	0.00000	3470.09500
1.01072	0.00000	3470.09500
1.01455	0.00000	3470.09500
1.01836	0.00000	3470.09500
1.02219	0.00000	3470.09500
1.02601	0.00000	3468.12500
1.02983	0.00000	3468.12500
1.03366	0.00000	3468.12500
1.03748	0.00000	3468.12500
1.04131	0.00000	3469.82700
1.04509	0.00000	3469.82700
1.04891	0.00000	3469.82700
1.05274	0.00000	3469.82700
1.05657	0.00000	3469.82700
1.06040	0.00000	3468.39300
1.06422	0.00000	3468.39300
1.06805	0.00000	3468.39300
1.07188	0.00000	3468.39300
1.07570	0.00000	3470.09500
1.07952	0.00000	3470.09500
1.08335	0.00000	3470.09500
1.08718	0.00000	3470.09500
1.09100	0.00000	3470.09500
1.09482	0.00000	3471.69300
1.09864	0.00000	3471.69300
1.10247	0.00000	3471.69300
1.10629	0.00000	3471.69300
1.11011	0.00000	3473.41900
1.11395	0.00000	3473.41900
1.11777	0.00000	3473.41900
1.12159	0.00000	3473.41900
1.12541	0.00000	3473.41900
1.12924	0.00000	3471.69300
1.13306	0.00000	3471.69300
1.13690	0.00000	3471.69300
1.14072	0.00000	3471.69300
1.14454	0.00000	3477.01100
1.14837	0.00000	3477.01100
1.15219	0.00000	3477.01100
1.15602	0.00000	3477.01100
1.15984	0.00000	3477.01100
1.16366	0.00000	3468.66100
1.16749	0.00000	3468.66100
1.17131	0.00000	3468.66100
1.17514	0.00000	3468.66100
1.17896	0.00000	3469.82700
1.18278	0.00000	3469.82700
1.18660	0.00000	3469.82700
1.19043	0.00000	3469.82700
1.19425	0.00000	3469.82700
1.19807	0.00000	3471.69300
1.20190	0.00000	3471.69300
1.20572	0.00000	3471.69300
1.20954	0.00000	3471.69300
1.21338	0.00000	3470.09500
1.21720	0.00000	3470.09500
1.22102	0.00000	3470.09500
1.22484	0.00000	3470.09500
1.22866	0.00000	3470.09500
1.23248	0.00000	3468.39300
1.23631	0.00000	3468.39300
1.24013	0.00000	3468.39300
1.24396	0.00000	3468.39300
1.24778	0.00000	3473.68400
1.25160	0.00000	3473.68400
1.25542	0.00000	3473.68400
1.25925	0.00000	3473.68400
1.26307	0.00000	3473.68400
1.26690	0.00000	3471.95800
1.27073	0.00000	3471.95800
1.27456	0.00000	3471.95800
1.27838	0.00000	3471.95800
1.28220	0.00000	3473.41900
1.28603	0.00000	3473.41900
1.28985	0.00000	3473.41900
1.29367	0.00000	3473.41900
1.29750	0.00000	3473.41900
1.30132	0.00000	3468.39300
1.30509	0.00000	3468.39300
1.30891	0.00000	3468.39300
1.31273	0.00000	3468.39300
1.31655	0.00000	3473.68400
1.32037	0.00000	3473.68400
1.32420	0.00000	3473.68400
1.32802	0.00000	3473.68400
1.33184	0.00000	3473.68400
1.33567	0.00000	3472.22200
1.33949	0.00000	3472.22200
1.34331	0.00000	3472.22200
1.34713	0.00000	3472.22200
1.35096	0.00000	3473.41900
1.35478	0.00000	3473.41900
1.35861	0.00000	3473.41900
1.36243	0.00000	3473.41900
1.36625	0.00000	3473.41900
1.37008	0.00000	3479.08700
1.37391	0.00000	3479.08700
1.37773	0.00000	3479.08700
1.38155	0.00000	3479.08700
1.38537	0.00000	3473.94800
1.38920	0.00000	3473.94800
1.39303	0.00000	3473.94800
1.39684	0.00000	3473.94800
1.40066	0.00000	3473.94800
1.40449	0.00000	3475.78300
1.40831	0.00000	3475.78300
1.41212	0.00000	3475.78300
1.41595	0.00000	3475.78300
1.41977	0.00000	3477.27200
1.42360	0.00000	3477.27200
1.42742	0.00000	3477.27200
1.43125	0.00000	3477.27200
1.43507	0.00000	3477.27200
1.43890	0.00000	3475.52300
1.44272	0.00000	3475.52300
1.44655	0.00000	3475.52300
1.45037	0.00000	3475.52300
1.45419	0.00000	3469.82700
1.45801	0.00000	3469.82700
1.46184	0.00000	3469.82700
1.46566	0.00000	3469.82700
1.46950	0.00000	3469.82700
1.47332	0.00000	3475.52300
1.47714	0.00000	3475.52300
1.48097	0.00000	3475.52300
1.48478	0.00000	3475.52300
1.48860	0.00000	3473.94800
1.49242	0.00000	3473.94800
1.49624	0.00000	3473.94800
1.50008	0.00000	3473.94800
1.50390	0.00000	3473.94800
1.50773	0.00000	3472.22200
1.51155	0.00000	3472.22200
1.51539	0.00000	3472.22200
1.51921	0.00000	3472.22200
1.52302	0.00000	3477.27200
1.52685	0.00000	3477.27200
1.53067	0.00000	3477.27200
1.53450	0.00000	3477.27200
1.53832	0.00000	3477.27200
1.54214	0.00000	3475.26100
1.54596	0.00000	3475.26100
1.54979	0.00000	3475.26100
1.55361	0.00000	3475.26100
1.55743	0.00000	3477.27200
1.56125	0.00000	3477.27200
1.56508	0.00000	3477.27200
1.56891	0.00000	3477.27200
1.57273	0.00000	3477.27200
1.57656	0.00000	3472.48500
1.58038	0.00000	3472.48500
1.58420	0.00000	3472.48500
1.58802	0.00000	3472.48500
1.59185	0.00000	3477.27200
1.59568	0.00000	3477.27200
1.59950	0.00000	3477.27200
1.60332	0.00000	3477.27200
1.60715	0.00000	3477.27200
1.61098	0.00000	3475.52300
1.61481	0.00000	3475.52300
1.61863	0.00000	3475.52300
1.62245	0.00000	3475.52300
1.62628	0.00000	3473.68400
1.63011	0.00000	3473.68400
1.63394	0.00000	3473.68400
1.63776	0.00000	3473.68400
1.64158	0.00000	3473.68400
1.64541	0.00000	3475.52300
1.64923	0.00000	3475.52300
1.65306	0.00000	3475.52300
1.65688	0.00000	3475.52300
1.66070	0.00000	3477.53300
1.66452	0.00000	3477.53300
1.66834	0.00000	3477.53300
1.67217	0.00000	3477.53300
1.67600	0.00000	3477.53300
1.67983	0.00000	3472.22200
1.68365	0.00000	3472.22200
1.68747	0.00000	3472.22200
1.69129	0.00000	3472.22200
1.69512	0.00000	3477.53300
1.69894	0.00000	3477.53300
1.70276	0.00000	3477.53300
1.70659	0.00000	3477.53300
1.71041	0.00000	3477.53300
1.71424	0.00000	3479.08700
1.71806	0.00000	3479.08700
1.72189	0.00000	3479.08700
1.72571	0.00000	3479.08700
1.72954	0.00000	3473.94800
1.73336	0.00000	3473.94800
1.73718	0.00000	3473.94800
1.74101	0.00000	3473.94800
1.74483	0.00000	3473.94800
1.74866	0.00000	3479.34400
1.75249	0.00000	3479.34400
1.75630	0.00000	3479.34400
1.76012	0.00000	3479.34400
1.76395	0.00000	3474.21200
1.76777	0.00000	3474.21200
1.77160	0.00000	3474.21200
1.77543	0.00000	3474.21200
1.77925	0.00000	3474.21200
1.78307	0.00000	3479.08700
1.78690	0.00000	3479.08700
1.79072	0.00000	3479.08700
1.79454	0.00000	3479.08700
1.79836	0.00000	3477.27200
1.80218	0.00000	3477.27200
1.80601	0.00000	3477.27200
1.80983	0.00000	3477.27200
1.81366	0.00000	3477.27200
1.81748	0.00000	3479.34400
1.82131	0.00000	3479.34400
1.82509	0.00000	3479.34400
1.82891	0.00000	3479.34400
1.83274	0.00000	3477.53300
1.83655	0.00000	3477.53300
1.84038	0.00000	3477.53300
1.84420	0.00000	3477.53300
1.84803	0.00000	3477.53300
1.85186	0.00000	3476.04300
1.85568	0.00000	3476.04300
1.85952	0.00000	3476.04300
1.86334	0.00000	3476.04300
1.86716	0.00000	3477.53300
1.87098	0.00000	3477.53300
1.87481	0.00000	3477.53300
1.87864	0.00000	3477.53300
1.88247	0.00000	3477.53300
1.88630	0.00000	3479.34400
1.89013	0.00000	3479.34400
1.89395	0.00000	3479.34400
1.89777	0.00000	3479.34400
1.90159	0.00000	3480.86100
1.90542	0.00000	3480.86100
1.90924	0.00000	3480.86100
1.91306	0.00000	3480.86100
1.91689	0.00000	3480.86100
1.92072	0.00000	3479.08700
1.92454	0.00000	3479.08700
1.92836	0.00000	3479.08700
1.93218	0.00000	3479.08700
1.93600	0.00000	3474.21200
1.93983	0.00000	3474.21200
1.94365	0.00000	3474.21200
1.94747	0.00000	3474.21200
1.95129	0.00000	3474.21200
1.95512	0.00000	3479.34400
1.95894	0.00000	3479.34400
1.96277	0.00000	3479.34400
1.96659	0.00000	3479.34400
1.97041	0.00000	3480.86100
1.97424	0.00000	3480.86100
1.97805	0.00000	3480.86100
1.98188	0.00000	3480.86100
1.98570	0.00000	3480.86100
1.98952	0.00000	3479.34400
1.99335	0.00000	3479.34400
1.99717	0.00000	3479.34400
2.00099	0.00000	3479.34400
2.00481	0.00000	3477.53300
2.00864	0.00000	3477.53300
2.01246	0.00000	3477.53300
2.01628	0.00000	3477.53300
2.02010	0.00000	3477.53300
2.02392	0.00000	3475.78300
2.02774	0.00000	3475.78300
2.03157	0.00000	3475.78300
2.03540	0.00000	3475.78300
2.03922	0.00000	3473.94800
2.04304	0.00000	3473.94800
2.04687	0.00000	3473.94800
2.05069	0.00000	3473.94800
2.05451	0.00000	3473.94800
2.05834	0.00000	3475.26100
2.06216	0.00000	3475.26100
2.06599	0.00000	3475.26100
2.06981	0.00000	3475.26100
2.07363	0.00000	3473.68400
2.07746	0.00000	3473.68400
2.08128	0.00000	3473.68400
2.08509	0.00000	3473.68400
2.08891	0.00000	3473.68400
2.09273	0.00000	3479.08700
2.09656	0.00000	3479.08700
2.10038	0.00000	3479.08700
2.10420	0.00000	3479.08700
2.10803	0.00000	3473.94800
2.11185	0.00000	3473.94800
2.11569	0.00000	3473.94800
2.11951	0.00000	3473.94800
2.12333	0.00000	3473.94800
2.12716	0.00000	3482.65200
2.13098	0.00000	3482.65200
2.13480	0.00000	3482.65200
2.13863	0.00000	3482.65200
2.14245	0.00000	3473.94800
2.14628	0.00000	3473.94800
2.15011	0.00000	3473.94800
2.15393	0.00000	3473.94800
2.15776	0.00000	3473.94800
2.16158	0.00000	3479.08700
2.16540	0.00000	3479.08700
2.16923	0.00000	3479.08700
2.17305	0.00000	3479.08700
2.17689	0.00000	3480.86100
2.18071	0.00000	3480.86100
2.18454	0.00000	3480.86100
2.18836	0.00000	3480.86100
2.19220	0.00000	3480.86100
2.19602	0.00000	3471.95800
2.19984	0.00000	3471.95800
2.20367	0.00000	3471.95800
2.20749	0.00000	3471.95800
2.21130	0.00000	3473.94800
2.21513	0.00000	3473.94800
2.21895	0.00000	3473.94800
2.22278	0.00000	3473.94800
2.22660	0.00000	3473.94800
2.23043	0.00000	3475.52300
2.23425	0.00000	3475.52300
2.23807	0.00000	3475.52300
2.24190	0.00000	3475.52300
2.24572	0.00000	3473.68400
2.24955	0.00000	3473.68400
2.25338	0.00000	3473.68400
2.25720	0.00000	3473.68400
2.26103	0.00000	3473.68400
2.26485	0.00000	3479.08700
2.26867	0.00000	3479.08700
2.27249	0.00000	3479.08700
2.27632	0.00000	3479.08700
2.28015	0.00000	3473.94800
2.28398	0.00000	3473.94800
2.28780	0.00000	3473.94800
2.29163	0.00000	3473.94800
2.29546	0.00000	3473.94800
2.29932	0.00000	3471.95800
2.30316	0.00000	3471.95800
2.30699	0.00000	3471.95800
2.31081	0.00000	3471.95800
2.31464	0.00000	3470.09500
2.31847	0.00000	3470.09500
2.32229	0.00000	3470.09500
2.32611	0.00000	3470.09500
2.32993	0.00000	3470.09500
2.33375	0.00000	3471.42800
2.33758	0.00000	3471.42800
2.34142	0.00000	3471.42800
2.34524	0.00000	3471.42800
2.34907	0.00000	3473.68400
2.35290	0.00000	3473.68400
2.35673	0.00000	3473.68400
2.36058	0.00000	3473.68400
2.36443	0.00000	3473.68400
2.36826	0.00000	3475.52300
2.37208	0.00000	3475.52300
2.37590	0.00000	3475.52300
2.37972	0.00000	3475.52300
2.38356	0.00000	3473.68400
2.38738	0.00000	3473.68400
2.39120	0.00000	3473.68400
2.39503	0.00000	3473.68400
2.39885	0.00000	3473.68400
2.40266	0.00000	3468.12500
2.40649	0.00000	3468.12500
2.41031	0.00000	3468.12500
2.41414	0.00000	3468.12500
2.41797	0.00000	3477.01100
2.42179	0.00000	3477.01100
2.42562	0.00000	3477.01100
2.42944	0.00000	3477.01100
2.43327	0.00000	3477.01100
2.43709	0.00000	3471.69300
2.44092	0.00000	3471.69300
2.44473	0.00000	3471.69300
2.44855	0.00000	3471.69300
2.45237	0.00000	3470.09500
2.45619	0.00000	3470.09500
2.46001	0.00000	3470.09500
2.46384	0.00000	3470.09500
2.46768	0.00000	3470.09500
2.47150	0.00000	3475.26100
2.47532	0.00000	3475.26100
2.47915	0.00000	3475.26100
2.48298	0.00000	3475.26100
2.48681	0.00000	3473.68400
2.49064	0.00000	3473.68400
2.49446	0.00000	3473.68400
2.49828	0.00000	3473.68400
2.50211	0.00000	3473.68400
2.50593	0.00000	3471.42800
2.50976	0.00000	3471.42800
2.51358	0.00000	3471.42800
2.51741	0.00000	3471.42800
2.52123	0.00000	3470.36300
2.52506	0.00000	3470.36300
2.52889	0.00000	3470.36300
2.53272	0.00000	3470.36300
2.53654	0.00000	3470.36300
2.54036	0.00000	3475.00000
2.54419	0.00000	3475.00000
2.54801	0.00000	3475.00000
2.55184	0.00000	3475.00000
2.55566	0.00000	3477.01100
2.55948	0.00000	3477.01100
2.56331	0.00000	3477.01100
2.56714	0.00000	3477.01100
2.57095	0.00000	3477.01100
2.57478	0.00000	3478.31200
2.57860	0.00000	3478.31200
2.58243	0.00000	3478.31200
2.58626	0.00000	3478.31200
2.59008	0.00000	3473.68400
2.59390	0.00000	3473.68400
2.59773	0.00000	3473.68400
2.60154	0.00000	3473.68400
2.60537	0.00000	3473.68400
2.60919	0.00000	3475.00000
2.61301	0.00000	3475.00000
2.61683	0.00000	3475.00000
2.62065	0.00000	3475.00000
2.62448	0.00000	3473.68400
2.62830	0.00000	3473.68400
2.63213	0.00000	3473.68400
2.63595	0.00000	3473.68400
2.63977	0.00000	3473.68400
2.64360	0.00000	3471.42800
2.64742	0.00000	3471.42800
2.65124	0.00000	3471.42800
2.65507	0.00000	3471.42800
2.65889	0.00000	3473.41900
2.66272	0.00000	3473.41900
2.66654	0.00000	3473.41900
2.67037	0.00000	3473.41900
2.67419	0.00000	3473.41900
2.67801	0.00000	3474.73700
2.68184	0.00000	3474.73700
2.68566	0.00000	3474.73700
2.68948	0.00000	3474.73700
2.69331	0.00000	3473.68400
2.69709	0.00000	3473.68400
2.70092	0.00000	3473.68400
2.70474	0.00000	3473.68400
2.70855	0.00000	3473.68400
2.71237	0.00000	3470.89700
2.71619	0.00000	3470.89700
2.72002	0.00000	3470.89700
2.72384	0.00000	3470.89700
2.72766	0.00000	3473.68400
2.73148	0.00000	3473.68400
2.73530	0.00000	3473.68400
2.73913	0.00000	3473.68400
2.74296	0.00000	3473.68400
2.74678	0.00000	3478.05300
2.75060	0.00000	3478.05300
2.75442	0.00000	3478.05300
2.75824	0.00000	3478.05300
2.76206	0.00000	3473.68400
2.76589	0.00000	3473.68400
2.76971	0.00000	3473.68400
2.77353	0.00000	3473.68400
2.77735	0.00000	3473.68400
2.78117	0.00000	3467.58800
2.78500	0.00000	3467.58800
2.78883	0.00000	3467.58800
2.79265	0.00000	3467.58800
2.79647	0.00000	3473.41900
2.80029	0.00000	3473.41900
2.80411	0.00000	3473.41900
2.80793	0.00000	3473.41900
2.81176	0.00000	3473.41900
2.81558	0.00000	3470.63000
2.81940	0.00000	3470.63000
2.82323	0.00000	3470.63000
2.82706	0.00000	3470.63000
2.83090	0.00000	3477.27200
2.83472	0.00000	3477.27200
2.83854	0.00000	3477.27200
2.84236	0.00000	3477.27200
2.84619	0.00000	3470.89700
2.85001	0.00000	3470.89700
2.85383	0.00000	3470.89700
2.85765	0.00000	3470.89700
2.86148	0.00000	3470.89700
2.86531	0.00000	3480.86100
2.86909	0.00000	3480.86100
2.87291	0.00000	3480.86100
2.87673	0.00000	3480.86100
2.88057	0.00000	3470.63000
2.88439	0.00000	3470.63000
2.88821	0.00000	3470.63000
2.89204	0.00000	3470.63000
2.89587	0.00000	3470.63000
2.89970	0.00000	3477.27200
2.90353	0.00000	3477.27200
2.90735	0.00000	3477.27200
2.91118	0.00000	3477.27200
2.91501	0.00000	3473.94800
2.91883	0.00000	3473.94800
2.92266	0.00000	3473.94800
2.92649	0.00000	3473.94800
2.93031	0.00000	3473.94800
2.93413	0.00000	3470.36300
2.93795	0.00000	3470.36300
2.94178	0.00000	3470.36300
2.94560	0.00000	3470.36300
2.94941	0.00000	3470.09500
2.95323	0.00000	3470.09500
2.95706	0.00000	3470.09500
2.96088	0.00000	3470.09500
2.96470	0.00000	3470.09500
2.96853	0.00000	3470.63000
2.97235	0.00000	3470.63000
2.97617	0.00000	3470.63000
2.98000	0.00000	3470.63000
2.98382	0.00000	3470.09500
2.98765	0.00000	3470.09500
2.99148	0.00000	3470.09500
2.99530	0.00000	3470.09500
2.99912	0.00000	3470.09500
3.00294	0.00000	3470.63000
3.00675	0.00000	3470.63000
3.01058	0.00000	3470.63000
3.01440	0.00000	3470.63000
3.01823	0.00000	3477.27200
3.02205	0.00000	3477.27200
3.02587	0.00000	3477.27200
3.02970	0.00000	3477.27200
3.03353	0.00000	3477.27200
3.03737	0.00000	3474.47500
3.04119	0.00000	3474.47500
3.04501	0.00000	3474.47500
3.04883	0.00000	3474.47500
3.05265	0.00000	3473.94800
3.05648	0.00000	3473.94800
3.06030	0.00000	3473.94800
3.06412	0.00000	3473.94800
3.06794	0.00000	3473.94800
3.07176	0.00000	3481.63100
3.07558	0.00000	3481.63100
3.07940	0.00000	3481.63100
3.08323	0.00000	3481.63100
3.08706	0.00000	3473.94800
3.09089	0.00000	3473.94800
3.09471	0.00000	3473.94800
3.09853	0.00000	3473.94800
3.10236	0.00000	3473.94800
3.10618	0.00000	3478.05300
3.11001	0.00000	3478.05300
3.11383	0.00000	3478.05300
3.11765	0.00000	3478.05300
3.12147	0.00000	3470.09500
3.12529	0.00000	3470.09500
3.12909	0.00000	3470.09500
3.13291	0.00000	3470.09500
3.13674	0.00000	3470.09500
3.14056	0.00000	3478.05300
3.14439	0.00000	3478.05300
3.14821	0.00000	3478.05300
3.15203	0.00000	3478.05300
3.15585	0.00000	3477.27200
3.15968	0.00000	3477.27200
3.16350	0.00000	3477.27200
3.16732	0.00000	3477.27200
3.17114	0.00000	3477.27200
3.17497	0.00000	3481.63100
3.17878	0.00000	3481.63100
3.18261	0.00000	3481.63100
3.18643	0.00000	3481.63100
3.19025	0.00000	3473.68400
3.19408	0.00000	3473.68400
3.19791	0.00000	3473.68400
3.20173	0.00000	3473.68400
3.20555	0.00000	3473.68400
3.20938	0.00000	3474.73700
3.21320	0.00000	3474.73700
3.21702	0.00000	3474.73700
3.22083	0.00000	3474.73700
3.22467	0.00000	3477.27200
3.22850	0.00000	3477.27200
3.23232	0.00000	3477.27200
3.23615	0.00000	3477.27200
3.23997	0.00000	3477.27200
3.24379	0.00000	3481.88700
3.24761	0.00000	3481.88700
3.25143	0.00000	3481.88700
3.25525	0.00000	3481.88700
3.25908	0.00000	3481.11800
3.26291	0.00000	3481.11800
3.26673	0.00000	3481.11800
3.27056	0.00000	3481.11800
3.27437	0.00000	3481.11800
3.27820	0.00000	3478.31200
3.28202	0.00000	3478.31200
3.28585	0.00000	3478.31200
3.28967	0.00000	3478.31200
3.29350	0.00000	3477.53300
3.29734	0.00000	3477.53300
3.30117	0.00000	3477.53300
3.30499	0.00000	3477.53300
3.30881	0.00000	3477.53300
3.31264	0.00000	3475.00000
3.31647	0.00000	3475.00000
3.32029	0.00000	3475.00000
3.32412	0.00000	3475.00000
3.32794	0.00000	3477.53300
3.33177	0.00000	3477.53300
3.33560	0.00000	3477.53300
3.33943	0.00000	3477.53300
3.34325	0.00000	3477.53300
3.34708	0.00000	3482.14200
3.35090	0.00000	3482.14200
3.35472	0.00000	3482.14200
3.35855	0.00000	3482.14200
3.36237	0.00000	3473.41900
3.36620	0.00000	3473.41900
3.37002	0.00000	3473.41900
3.37385	0.00000	3473.41900
3.37767	0.00000	3473.41900
3.38150	0.00000	3478.57100
3.38532	0.00000	3478.57100
3.38915	0.00000	3478.57100
3.39298	0.00000	3478.57100
3.39680	0.00000	3477.27200
3.40062	0.00000	3477.27200
3.40444	0.00000	3477.27200
3.40827	0.00000	3477.27200
3.41208	0.00000	3477.27200
3.41591	0.00000	3475.52300
3.41974	0.00000	3475.52300
3.42356	0.00000	3475.52300
3.42739	0.00000	3475.52300
3.43121	0.00000	3473.94800
3.43503	0.00000	3473.94800
3.43885	0.00000	3473.94800
3.44267	0.00000	3473.94800
3.44649	0.00000	3473.94800
3.45032	0.00000	3475.52300
3.45415	0.00000	3475.52300
3.45797	0.00000	3475.52300
3.46180	0.00000	3475.52300
3.46562	0.00000	3477.27200
3.46944	0.00000	3477.27200
3.47326	0.00000	3477.27200
3.47709	0.00000	3477.27200
3.48092	0.00000	3477.27200
3.48474	0.00000	3475.52300
3.48856	0.00000	3475.52300
3.49238	0.00000	3475.52300
3.49620	0.00000	3475.52300
3.50002	0.00000	3473.94800
3.50385	0.00000	3473.94800
3.50767	0.00000	3473.94800
3.51150	0.00000	3473.94800
3.51532	0.00000	3473.94800
3.51914	0.00000	3479.08700
3.52296	0.00000	3479.08700
3.52679	0.00000	3479.08700
3.53062	0.00000	3479.08700
3.53444	0.00000	3473.68400
3.53827	0.00000	3473.68400
3.54209	0.00000	3473.68400
3.54592	0.00000	3473.68400
3.54975	0.00000	3473.68400
3.55357	0.00000	3475.26100
3.55739	0.00000	3475.26100
3.56121	0.00000	3475.26100
3.56504	0.00000	3475.26100
3.56887	0.00000	3477.01100
3.57269	0.00000	3477.01100
3.57652	0.00000	3477.01100
3.58034	0.00000	3477.01100
3.58416	0.00000	3477.01100
3.58798	0.00000	3471.95800
3.59180	0.00000	3471.95800
3.59562	0.00000	3471.95800
3.59944	0.00000	3471.95800
3.60327	0.00000	3473.68400
3.60711	0.00000	3473.68400
3.61093	0.00000	3473.68400
3.61475	0.00000	3473.68400
3.61857	0.00000	3473.68400
3.62239	0.00000	3471.69300
3.62621	0.00000	3471.69300
3.63003	0.00000	3471.69300
3.63386	0.00000	3471.69300
3.63768	0.00000	3470.09500
3.64151	0.00000	3470.09500
3.64533	0.00000	3470.09500
3.64916	0.00000	3470.09500
3.65298	0.00000	3470.09500
3.65681	0.00000	3475.26100
3.66064	0.00000	3475.26100
3.66446	0.00000	3475.26100
3.66828	0.00000	3475.26100
3.67210	0.00000	3473.94800
3.67593	0.00000	3473.94800
3.67976	0.00000	3473.94800
3.68359	0.00000	3473.94800
3.68742	0.00000	3473.94800
3.69124	0.00000	3475.52300
3.69507	0.00000	3475.52300
3.69889	0.00000	3475.52300
3.70272	0.00000	3475.52300
3.70654	0.00000	3477.27200
3.71037	0.00000	3477.27200
3.71420	0.00000	3477.27200
3.71802	0.00000	3477.27200
3.72185	0.00000	3477.27200
3.72568	0.00000	3479.08700
3.72950	0.00000	3479.08700
3.73333	0.00000	3479.08700
3.73716	0.00000	3479.08700
3.74098	0.00000	3477.27200
3.74480	0.00000	3477.27200
3.74862	0.00000	3477.27200
3.75245	0.00000	3477.27200
3.75627	0.00000	3477.27200
3.76010	0.00000	3475.78300
3.76392	0.00000	3475.78300
3.76774	0.00000	3475.78300
3.77157	0.00000	3475.78300
3.77539	0.00000	3473.68400
3.77923	0.00000	3473.68400
3.78305	0.00000	3473.68400
3.78688	0.00000	3473.68400
3.79070	0.00000	3473.68400
3.79453	0.00000	3468.39300
3.79835	0.00000	3468.39300
3.80216	0.00000	3468.39300
3.80599	0.00000	3468.39300
3.80982	0.00000	3477.27200
3.81365	0.00000	3477.27200
3.81747	0.00000	3477.27200
3.82131	0.00000	3477.27200
3.82509	0.00000	3477.27200
3.82891	0.00000	3475.78300
3.83273	0.00000	3475.78300
3.83655	0.00000	3475.78300
3.84037	0.00000	3475.78300
3.84421	0.00000	3477.53300
3.84805	0.00000	3477.53300
3.85187	0.00000	3477.53300
3.85570	0.00000	3477.53300
3.85952	0.00000	3477.53300
3.86335	0.00000	3475.52300
3.86717	0.00000	3475.52300
3.87100	0.00000	3475.52300
3.87482	0.00000	3475.52300
3.87865	0.00000	3473.68400
3.88248	0.00000	3473.68400
3.88630	0.00000	3473.68400
3.89013	0.00000	3473.68400
3.89395	0.00000	3473.68400
3.89778	0.00000	3482.65200
3.90161	0.00000	3482.65200
3.90544	0.00000	3482.65200
3.90926	0.00000	3482.65200
3.91309	0.00000	3480.86100
3.91691	0.00000	3480.86100
3.92074	0.00000	3480.86100
3.92457	0.00000	3480.86100
3.92839	0.00000	3480.86100
3.93221	0.00000	3475.52300
3.93604	0.00000	3475.52300
3.93986	0.00000	3475.52300
3.94368	0.00000	3475.52300
3.94751	0.00000	3477.53300
3.95133	0.00000	3477.53300
3.95515	0.00000	3477.53300
3.95898	0.00000	3477.53300
3.96281	0.00000	3477.53300
3.96663	0.00000	3482.65200
3.97045	0.00000	3482.65200
3.97428	0.00000	3482.65200
3.97810	0.00000	3482.65200
3.98193	0.00000	3477.53300
3.98576	0.00000	3477.53300
3.98959	0.00000	3477.53300
3.99341	0.00000	3477.53300
3.99724	0.00000	3477.53300
4.00114	0.00000	3472.22200
4.00501	0.00000	3472.22200
4.00883	0.00000	3472.22200
4.01266	0.00000	3472.22200
4.01648	0.00000	3477.53300
4.02031	0.00000	3477.53300
4.02414	0.00000	3477.53300
4.02797	0.00000	3477.53300
4.03180	0.00000	3477.53300
4.03563	0.00000	3476.04300
4.03945	0.00000	3476.04300
4.04327	0.00000	3476.04300
4.04710	0.00000	3476.04300
4.05092	0.00000	3477.01100
4.05475	0.00000	3477.01100
4.05857	0.00000	3477.01100
4.06239	0.00000	3477.01100
4.06621	0.00000	3477.01100
4.07004	0.00000	3475.78300
4.07387	0.00000	3475.78300
4.07769	0.00000	3475.78300
4.08152	0.00000	3475.78300
4.08536	0.00000	3473.94800
4.08919	0.00000	3473.94800
4.09301	0.00000	3473.94800
4.09684	0.00000	3473.94800
4.10067	0.00000	3473.94800
4.10450	0.00000	3479.34400
4.10832	0.00000	3479.34400
4.11216	0.00000	3479.34400
4.11598	0.00000	3479.34400
4.11981	0.00000	3481.11800
4.12364	0.00000	3481.11800
4.12746	0.00000	3481.11800
4.13128	0.00000	3481.11800
4.13511	0.00000	3481.11800
4.13892	0.00000	3479.34400
4.14275	0.00000	3479.34400
4.14658	0.00000	3479.34400
4.15039	0.00000	3479.34400
4.15422	0.00000	3481.11800
4.15804	0.00000	3481.11800
4.16187	0.00000	3481.11800
4.16569	0.00000	3481.11800
4.16951	0.00000	3481.11800
4.17333	0.00000	3479.34400
4.17716	0.00000	3479.34400
4.18098	0.00000	3479.34400
4.18480	0.00000	3479.34400
4.18862	0.00000	3484.70300
4.19245	0.00000	3484.70300
4.19628	0.00000	3484.70300
4.20011	0.00000	3484.70300
4.20394	0.00000	3484.70300
4.20776	0.00000	3479.60100
4.21159	0.00000	3479.60100
4.21542	0.00000	3479.60100
4.21924	0.00000	3479.60100
4.22306	0.00000	3481.11800
4.22690	0.00000	3481.11800
4.23073	0.00000	3481.11800
4.23455	0.00000	3481.11800
4.23837	0.00000	3481.11800
4.24220	0.00000	3486.46700
4.24603	0.00000	3486.46700
4.24987	0.00000	3486.46700
4.25369	0.00000	3486.46700
4.25751	0.00000	3481.11800
4.26135	0.00000	3481.11800
4.26517	0.00000	3481.11800
4.26899	0.00000	3481.11800
4.27282	0.00000	3481.11800
4.27664	0.00000	3483.15900
4.28047	0.00000	3483.15900
4.28429	0.00000	3483.15900
4.28812	0.00000	3483.15900
4.29195	0.00000	3481.37500
4.29577	0.00000	3481.37500
4.29960	0.00000	3481.37500
4.30342	0.00000	3481.37500
4.30725	0.00000	3481.37500
4.31108	0.00000	3475.78300
4.31491	0.00000	3475.78300
4.31873	0.00000	3475.78300
4.32255	0.00000	3475.78300
4.32637	0.00000	3481.11800
4.33019	0.00000	3481.11800
4.33402	0.00000	3481.11800
4.33785	0.00000	3481.11800
4.34167	0.00000	3481.11800
4.34550	0.00000	3475.78300
4.34933	0.00000	3475.78300
4.35315	0.00000	3475.78300
4.35697	0.00000	3475.78300
4.36079	0.00000	3488.28800
4.36462	0.00000	3488.28800
4.36845	0.00000	3488.28800
4.37227	0.00000	3488.28800
4.37609	0.00000	3488.28800
4.37992	0.00000	3479.85700
4.38374	0.00000	3479.85700
4.38757	0.00000	3479.85700
4.39139	0.00000	3479.85700
4.39522	0.00000	3484.95700
4.39905	0.00000	3484.95700
4.40288	0.00000	3484.95700
4.40671	0.00000	3484.95700
4.41054	0.00000	3484.95700
4.41437	0.00000	3483.15900
4.41818	0.00000	3483.15900
4.42200	0.00000	3483.15900
4.42582	0.00000	3483.15900
4.42965	0.00000	3484.95700
4.43347	0.00000	3484.95700
4.43730	0.00000	3484.95700
4.44109	0.00000	3484.95700
4.44492	0.00000	3484.95700
4.44874	0.00000	3486.71700
4.45256	0.00000	3486.71700
4.45639	0.00000	3486.71700
4.46021	0.00000	3486.71700
4.46404	0.00000	3488.28800
4.46786	0.00000	3488.28800
4.47169	0.00000	3488.28800
4.47552	0.00000	3488.28800
4.47935	0.00000	3488.28800
4.48317	0.00000	3483.41200
4.48700	0.00000	3483.41200
4.49082	0.00000	3483.41200
4.49465	0.00000	3483.41200
4.49847	0.00000	3481.37500
4.50235	0.00000	3481.37500
4.50619	0.00000	3481.37500
4.51002	0.00000	3481.37500
4.51385	0.00000	3481.37500
4.51767	0.00000	3486.71700
4.52149	0.00000	3486.71700
4.52532	0.00000	3486.71700
4.52915	0.00000	3486.71700
4.53298	0.00000	3488.53800
4.53680	0.00000	3488.53800
4.54062	0.00000	3488.53800
4.54445	0.00000	3488.53800
4.54827	0.00000	3488.53800
4.55210	0.00000	3486.71700
4.55592	0.00000	3486.71700
4.55974	0.00000	3486.71700
4.56357	0.00000	3486.71700
4.56740	0.00000	3492.12000
4.57123	0.00000	3492.12000
4.57505	0.00000	3492.12000
4.57888	0.00000	3492.12000
4.58270	0.00000	3492.12000
4.58653	0.00000	3483.41200
4.59035	0.00000	3483.41200
4.59417	0.00000	3483.41200
4.59800	0.00000	3483.41200
4.60183	0.00000	3488.78800
4.60567	0.00000	3488.78800
4.60949	0.00000	3488.78800
4.61331	0.00000	3488.78800
4.61709	0.00000	3488.78800
4.62092	0.00000	3490.02800
4.62475	0.00000	3490.02800
4.62857	0.00000	3490.02800
4.63240	0.00000	3490.02800
4.63622	0.00000	3488.78800
4.64005	0.00000	3488.78800
4.64387	0.00000	3488.78800
4.64770	0.00000	3488.78800
4.65152	0.00000	3488.78800
4.65534	0.00000	3486.21600
4.65916	0.00000	3486.21600
4.66300	0.00000	3486.21600
4.66682	0.00000	3486.21600
4.67065	0.00000	3495.70200
4.67448	0.00000	3495.70200
4.67830	0.00000	3495.70200
4.68212	0.00000	3495.70200
4.68595	0.00000	3495.70200
4.68977	0.00000	3490.02800
4.69360	0.00000	3490.02800
4.69742	0.00000	3490.02800
4.70125	0.00000	3490.02800
4.70508	0.00000	3484.95700
4.70891	0.00000	3484.95700
4.71274	0.00000	3484.95700
4.71656	0.00000	3484.95700
4.72038	0.00000	3484.95700
4.72420	0.00000	3492.85700
4.72802	0.00000	3492.85700
4.73184	0.00000	3492.85700
4.73567	0.00000	3492.85700
4.73949	0.00000	3488.78800
4.74333	0.00000	3488.78800
4.74716	0.00000	3488.78800
4.75098	0.00000	3488.78800
4.75481	0.00000	3488.78800
4.75864	0.00000	3496.42800
4.76247	0.00000	3496.42800
4.76630	0.00000	3496.42800
4.77013	0.00000	3496.42800
4.77395	0.00000	3489.03700
4.77777	0.00000	3489.03700
4.78160	0.00000	3489.03700
4.78542	0.00000	3489.03700
4.78925	0.00000	3489.03700
4.79308	0.00000	3489.53300
4.79691	0.00000	3489.53300
4.80073	0.00000	3489.53300
4.80456	0.00000	3489.53300
4.80839	0.00000	3492.36600
4.81221	0.00000	3492.36600
4.81604	0.00000	3492.36600
4.81987	0.00000	3492.36600
4.82369	0.00000	3492.36600
4.82752	0.00000	3489.28500
4.83134	0.00000	3489.28500
4.83516	0.00000	3489.28500
4.83899	0.00000	3489.28500
4.84281	0.00000	3492.36600
4.84662	0.00000	3492.36600
4.85045	0.00000	3492.36600
4.85427	0.00000	3492.36600
4.85809	0.00000	3492.36600
4.86191	0.00000	3492.85700
4.86573	0.00000	3492.85700
4.86956	0.00000	3492.85700
4.87338	0.00000	3492.85700
4.87721	0.00000	3488.78800
4.88104	0.00000	3488.78800
4.88486	0.00000	3488.78800
4.88869	0.00000	3488.78800
4.89251	0.00000	3488.78800
4.89634	0.00000	3492.85700
4.90016	0.00000	3492.85700
4.90398	0.00000	3492.85700
4.90780	0.00000	3492.85700
4.91163	0.00000	3489.03700
4.91545	0.00000	3489.03700
4.91927	0.00000	3489.03700
4.92309	0.00000	3489.03700
4.92691	0.00000	3489.03700
4.93073	0.00000	3488.78800
4.93455	0.00000	3488.78800
4.93839	0.00000	3488.78800
4.94222	0.00000	3488.78800
4.94604	0.00000	3488.78800
4.94986	0.00000	3492.85700
4.95368	0.00000	3492.85700
4.95750	0.00000	3492.85700
4.96133	0.00000	3492.85700
4.96515	0.00000	3492.12000
4.96898	0.00000	3492.12000
4.97280	0.00000	3492.12000
4.97662	0.00000	3492.12000
4.98044	0.00000	3492.12000
4.98426	0.00000	3489.53300
4.98809	0.00000	3489.53300
4.99191	0.00000	3489.53300
4.99574	0.00000	3489.53300
4.99955	0.00000	3488.78800
5.00386	0.00000	3488.78800
5.00772	0.00000	3488.78800
5.01158	0.00000	3488.78800
5.01541	0.00000	3488.78800
5.01926	0.00000	3488.78800
5.02310	0.00000	3488.78800
5.02694	0.00000	3488.78800
5.03077	0.00000	3488.78800
5.03466	0.00000	3545.77400
5.03852	0.00000	3545.77400
5.04235	0.00000	3545.77400
5.04617	0.00000	3545.77400
5.05001	0.00000	3545.77400
5.05384	0.00000	3760.16200
5.05767	0.00000	3760.16200
5.06151	0.00000	3760.16200
5.06534	0.00000	3760.16200
5.06917	0.00000	3760.16200
5.07300	0.00000	3934.37200
5.07683	0.00000	3934.37200
5.08066	0.00000	3934.37200
5.08449	0.00000	3934.37200
5.08832	0.00000	3934.37200
5.09215	0.00000	4067.85100
5.09599	0.00000	4067.85100
5.09984	0.00000	4067.85100
5.10367	0.00000	4067.85100
5.10751	0.00000	4067.85100
5.11134	0.00000	4157.94900
5.11518	0.00000	4157.94900
5.11901	0.00000	4157.94900
5.12284	0.00000	4157.94900
5.12667	0.00000	4157.94900
5.13050	0.00000	4243.01500
5.13432	0.00000	4243.01500
5.13817	0.00000	4243.01500
5.14200	0.00000	4243.01500
5.14584	0.00000	4243.01500
5.14966	0.00000	4307.02100
5.15349	0.00000	4307.02100
5.15733	0.00000	4307.02100
5.16116	0.00000	4307.02100
5.16499	0.00000	4307.02100
5.16882	0.00000	4366.47900
5.17266	0.00000	4366.47900
5.17649	0.00000	4366.47900
5.18033	0.00000	4366.47900
5.18416	0.00000	4366.47900
5.18799	0.00000	4366.47900
5.19183	0.00000	4413.50700
5.19565	0.00000	4413.50700
5.19949	0.00000	4413.50700
5.20333	0.00000	4413.50700
5.20716	0.00000	4413.50700
5.21100	0.00000	4450.35400
5.21483	0.00000	4450.35400
5.21867	0.00000	4450.35400
5.22250	0.00000	4450.35400
5.22634	0.00000	4450.35400
5.23018	0.00000	4450.35400
5.23401	0.00000	4479.00500
5.23785	0.00000	4479.00500
5.24168	0.00000	4479.00500
5.24552	0.00000	4479.00500
5.24936	0.00000	4479.00500
5.25321	0.00000	4512.26600
5.25706	0.00000	4512.26600
5.26090	0.00000	4512.26600
5.26473	0.00000	4512.26600
5.26855	0.00000	4512.26600
5.27238	0.00000	4512.26600
5.27621	0.00000	4527.15700
5.28004	0.00000	4527.15700
5.28388	0.00000	4527.15700
5.28771	0.00000	4527.15700
5.29154	0.00000	4527.15700
5.29538	0.00000	4549.22700
5.29922	0.00000	4549.22700
5.30304	0.00000	4549.22700
5.30687	0.00000	4549.22700
5.31071	0.00000	4549.22700
5.31453	0.00000	4549.22700
5.31837	0.00000	4559.10500
5.32220	0.00000	4559.10500
5.32604	0.00000	4559.10500
5.32986	0.00000	4559.10500
5.33369	0.00000	4559.10500
5.33752	0.00000	4562.21200
5.34137	0.00000	4562.21200
5.34520	0.00000	4562.21200
5.34904	0.00000	4562.21200
5.35287	0.00000	4562.21200
5.35670	0.00000	4562.21200
5.36054	0.00000	4568.07700
5.36437	0.00000	4568.07700
5.36821	0.00000	4568.07700
5.37204	0.00000	4568.07700
5.37587	0.00000	4568.07700
5.37970	0.00000	4584.28900
5.38352	0.00000	4584.28900
5.38736	0.00000	4584.28900
5.39118	0.00000	4584.28900
5.39501	0.00000	4584.28900
5.39884	0.00000	4584.28900
5.40267	0.00000	4588.74000
5.40650	0.00000	4588.74000
5.41034	0.00000	4588.74000
5.41416	0.00000	4588.74000
5.41799	0.00000	4588.74000
5.42182	0.00000	4588.74000
5.42565	0.00000	4602.91900
5.42949	0.00000	4602.91900
5.43333	0.00000	4602.91900
5.43716	0.00000	4602.91900
5.44098	0.00000	4602.91900
5.44481	0.00000	4607.46900
5.44864	0.00000	4607.46900
5.45247	0.00000	4607.46900
5.45630	0.00000	4607.46900
5.46013	0.00000	4607.46900
5.46396	0.00000	4607.46900
5.46778	0.00000	4600.07500
5.47161	0.00000	4600.07500
5.47545	0.00000	4600.07500
5.47928	0.00000	4600.07500
5.48311	0.00000	4600.07500
5.48695	0.00000	4606.81600
5.49077	0.00000	4606.81600
5.49461	0.00000	4606.81600
5.49844	0.00000	4606.81600
5.50226	0.00000	4606.81600
5.50609	0.00000	4606.81600
5.50992	0.00000	4611.21700
5.51376	0.00000	4611.21700
5.51759	0.00000	4611.21700
5.52143	0.00000	4611.21700
5.52527	0.00000	4611.21700
5.52909	0.00000	4611.21700
5.53293	0.00000	4610.14300
5.53676	0.00000	4610.14300
5.54059	0.00000	4610.14300
5.54442	0.00000	4610.14300
5.54825	0.00000	4610.14300
5.55209	0.00000	4614.06800
5.55593	0.00000	4614.06800
5.55976	0.00000	4614.06800
5.56359	0.00000	4614.06800
5.56743	0.00000	4614.06800
5.57126	0.00000	4614.06800
5.57509	0.00000	4612.32900
5.57892	0.00000	4612.32900
5.58275	0.00000	4612.32900
5.58658	0.00000	4612.32900
5.59042	0.00000	4612.32900
5.59425	0.00000	4612.32900
5.59808	0.00000	4609.25600
5.60190	0.00000	4609.25600
5.60573	0.00000	4609.25600
5.60956	0.00000	4609.25600
5.61339	0.00000	4609.25600
5.61722	0.00000	4611.21700
5.62105	0.00000	4611.21700
5.62490	0.00000	4611.21700
5.62874	0.00000	4611.21700
5.63256	0.00000	4611.21700
5.63639	0.00000	4611.21700
5.64022	0.00000	4612.32900
5.64406	0.00000	4612.32900
5.64789	0.00000	4612.32900
5.65173	0.00000	4612.32900
5.65556	0.00000	4612.32900
5.65939	0.00000	4614.06800
5.66323	0.00000	4614.06800
5.66706	0.00000	4614.06800
5.67089	0.00000	4614.06800
5.67473	0.00000	4614.06800
5.67856	0.00000	4614.06800
5.68240	0.00000	4615.82200
5.68623	0.00000	4615.82200
5.69005	0.00000	4615.82200
5.69388	0.00000	4615.82200
5.69771	0.00000	4615.82200
5.70153	0.00000	4615.82200
5.70536	0.00000	4613.20700
5.70919	0.00000	4613.20700
5.71302	0.00000	4613.20700
5.71685	0.00000	4613.20700
5.72067	0.00000	4613.20700
5.72450	0.00000	4624.81000
5.72834	0.00000	4624.81000
5.73217	0.00000	4624.81000
5.73600	0.00000	4624.81000
5.73983	0.00000	4624.81000
5.74365	0.00000	4624.81000
5.74749	0.00000	4614.51200
5.75132	0.00000	4614.51200
5.75515	0.00000	4614.51200
5.75899	0.00000	4614.51200
5.76283	0.00000	4614.51200
5.76666	0.00000	4614.51200
5.77050	0.00000	4624.52800
5.77433	0.00000	4624.52800
5.77816	0.00000	4624.52800
5.78198	0.00000	4624.52800
5.78581	0.00000	4624.52800
5.78965	0.00000	4615.60400
5.79349	0.00000	4615.60400
5.79732	0.00000	4615.60400
5.80114	0.00000	4615.60400
5.80498	0.00000	4615.60400
5.80880	0.00000	4615.60400
5.81264	0.00000	4621.69800
5.81647	0.00000	4621.69800
5.82031	0.00000	4621.69800
5.82414	0.00000	4621.69800
5.82797	0.00000	4621.69800
5.83181	0.00000	4620.63700
5.83564	0.00000	4620.63700
5.83947	0.00000	4620.63700
5.84330	0.00000	4620.63700
5.84713	0.00000	4620.63700
5.85095	0.00000	4620.63700
5.85478	0.00000	4617.79200
5.85861	0.00000	4617.79200
5.86243	0.00000	4617.79200
5.86626	0.00000	4617.79200
5.87009	0.00000	4617.79200
5.87392	0.00000	4617.79200
5.87775	0.00000	4610.37700
5.88157	0.00000	4610.37700
5.88540	0.00000	4610.37700
5.88922	0.00000	4610.37700
5.89305	0.00000	4610.37700
5.89689	0.00000	4616.26100
5.90072	0.00000	4616.26100
5.90454	0.00000	4616.26100
5.90837	0.00000	4616.26100
5.91220	0.00000	4616.26100
5.91603	0.00000	4616.26100
5.91987	0.00000	4621.69800
5.92370	0.00000	4621.69800
5.92754	0.00000	4621.69800
5.93136	0.00000	4621.69800
5.93519	0.00000	4621.69800
5.93902	0.00000	4621.69800
5.94285	0.00000	4625.18800
5.94669	0.00000	4625.18800
5.95052	0.00000	4625.18800
5.95434	0.00000	4625.18800
5.95817	0.00000	4625.18800
5.96200	0.00000	4621.96000
5.96584	0.00000	4621.96000
5.96967	0.00000	4621.96000
5.97351	0.00000	4621.96000
5.97734	0.00000	4621.96000
5.98118	0.00000	4621.96000
5.98500	0.00000	4616.03800
5.98884	0.00000	4616.03800
5.99267	0.00000	4616.03800
5.99649	0.00000	4616.03800
6.00032	0.00000	4616.03800
6.00415	0.00000	4626.99300
6.00797	0.00000	4626.99300
6.01180	0.00000	4626.99300
6.01564	0.00000	4626.99300
6.01947	0.00000	4626.99300
6.02330	0.00000	4626.99300
6.02714	0.00000	4621.29900
6.03097	0.00000	4621.29900
6.03480	0.00000	4621.29900
6.03863	0.00000	4621.29900
6.04246	0.00000	4621.29900
6.04628	0.00000	4621.29900
6.05011	0.00000	4616.69200
6.05394	0.00000	4616.69200
6.05777	0.00000	4616.69200
6.06160	0.00000	4616.69200
6.06545	0.00000	4616.69200
6.06928	0.00000	4626.32700
6.07309	0.00000	4626.32700
6.07692	0.00000	4626.32700
6.08076	0.00000	4626.32700
6.08458	0.00000	4626.32700
6.08841	0.00000	4626.32700
6.09223	0.00000	4621.69800
6.09607	0.00000	4621.69800
6.09990	0.00000	4621.69800
6.10373	0.00000	4621.69800
6.10755	0.00000	4621.69800
6.11139	0.00000	4621.69800
6.11522	0.00000	4624.52800
6.11905	0.00000	4624.52800
6.12288	0.00000	4624.52800
6.12672	0.00000	4624.52800
6.13056	0.00000	4624.52800
6.13439	0.00000	4619.97700
6.13823	0.00000	4619.97700
6.14206	0.00000	4619.97700
6.14589	0.00000	4619.97700
6.14972	0.00000	4619.97700
6.15356	0.00000	4619.97700
6.15739	0.00000	4623.21000
6.16122	0.00000	4623.21000
6.16505	0.00000	4623.21000
6.16889	0.00000	4623.21000
6.17272	0.00000	4623.21000
6.17654	0.00000	4623.21000
6.18036	0.00000	4610.14300
6.18420	0.00000	4610.14300
6.18804	0.00000	4610.14300
6.19186	0.00000	4610.14300
6.19570	0.00000	4610.14300
6.19953	0.00000	4621.96000
6.20336	0.00000	4621.96000
6.20720	0.00000	4621.96000
6.21103	0.00000	4621.96000
6.21486	0.00000	4621.96000
6.21868	0.00000	4621.96000
6.22251	0.00000	4611.67700
6.22635	0.00000	4611.67700
6.23017	0.00000	4611.67700
6.23400	0.00000	4611.67700
6.23783	0.00000	4611.67700
6.24166	0.00000	4618.45100
6.24550	0.00000	4618.45100
6.24934	0.00000	4618.45100
6.25316	0.00000	4618.45100
6.25699	0.00000	4618.45100
6.26081	0.00000	4618.45100
6.26463	0.00000	4619.31800
6.26847	0.00000	4619.31800
6.27231	0.00000	4619.31800
6.27613	0.00000	4619.31800
6.27997	0.00000	4619.31800
6.28380	0.00000	4619.31800
6.28762	0.00000	4623.86800
6.29145	0.00000	4623.86800
6.29528	0.00000	4623.86800
6.29913	0.00000	4623.86800
6.30299	0.00000	4623.86800
6.30683	0.00000	4619.77200
6.31067	0.00000	4619.77200
6.31450	0.00000	4619.77200
6.31832	0.00000	4619.77200
6.32215	0.00000	4619.77200
6.32598	0.00000	4619.77200
6.32981	0.00000	4614.51200
6.33364	0.00000	4614.51200
6.33748	0.00000	4614.51200
6.34132	0.00000	4614.51200
6.34516	0.00000	4614.51200
6.34899	0.00000	4614.51200
6.35283	0.00000	4625.85000
6.35667	0.00000	4625.85000
6.36052	0.00000	4625.85000
6.36436	0.00000	4625.85000
6.36820	0.00000	4625.85000
6.37204	0.00000	4621.29900
6.37589	0.00000	4621.29900
6.37973	0.00000	4621.29900
6.38356	0.00000	4621.29900
6.38739	0.00000	4621.29900
6.39123	0.00000	4621.29900
6.39507	0.00000	4628.86200
6.39891	0.00000	4628.86200
6.40273	0.00000	4628.86200
6.40657	0.00000	4628.86200
6.41040	0.00000	4628.86200
6.41423	0.00000	4617.79200
6.41807	0.00000	4617.79200
6.42190	0.00000	4617.79200
6.42574	0.00000	4617.79200
6.42958	0.00000	4617.79200
6.43341	0.00000	4617.79200
6.43725	0.00000	4628.68500
6.44109	0.00000	4628.68500
6.44492	0.00000	4628.68500
6.44875	0.00000	4628.68500
6.45259	0.00000	4628.68500
6.45641	0.00000	4628.68500
6.46025	0.00000	4623.86800
6.46408	0.00000	4623.86800
6.46792	0.00000	4623.86800
6.47175	0.00000	4623.86800
6.47557	0.00000	4623.86800
6.47941	0.00000	4625.66300
6.48324	0.00000	4625.66300
6.48707	0.00000	4625.66300
6.49090	0.00000	4625.66300
6.49473	0.00000	4625.66300
6.49856	0.00000	4625.66300
6.50239	0.00000	4610.37700
6.50622	0.00000	4610.37700
6.51006	0.00000	4610.37700
6.51389	0.00000	4610.37700
6.51772	0.00000	4610.37700
6.52156	0.00000	4610.37700
6.52540	0.00000	4629.52500
6.52922	0.00000	4629.52500
6.53306	0.00000	4629.52500
6.53690	0.00000	4629.52500
6.54072	0.00000	4629.52500
6.54455	0.00000	4615.60400
6.54838	0.00000	4615.60400
6.55221	0.00000	4615.60400
6.55605	0.00000	4615.60400
6.55988	0.00000	4615.60400
6.56373	0.00000	4615.60400
6.56756	0.00000	4623.86800
6.57140	0.00000	4623.86800
6.57523	0.00000	4623.86800
6.57906	0.00000	4623.86800
6.58289	0.00000	4623.86800
6.58672	0.00000	4623.48200
6.59055	0.00000	4623.48200
6.59438	0.00000	4623.48200
6.59821	0.00000	4623.48200
6.60203	0.00000	4623.48200
6.60587	0.00000	4623.48200
6.60970	0.00000	4629.17300
6.61353	0.00000	4629.17300
6.61737	0.00000	4629.17300
6.62121	0.00000	4629.17300
6.62504	0.00000	4629.17300
6.62888	0.00000	4629.17300
6.63272	0.00000	4628.86200
6.63655	0.00000	4628.86200
6.64038	0.00000	4628.86200
6.64422	0.00000	4628.86200
6.64805	0.00000	4628.86200
6.65189	0.00000	4625.66300
6.65574	0.00000	4625.66300
6.65956	0.00000	4625.66300
6.66341	0.00000	4625.66300
6.66724	0.00000	4625.66300
6.67107	0.00000	4625.66300
6.67490	0.00000	4619.52400
6.67873	0.00000	4619.52400
6.68256	0.00000	4619.52400
6.68639	0.00000	4619.52400
6.69022	0.00000	4619.52400
6.69406	0.00000	4619.52400
6.69789	0.00000	4621.69800
6.70172	0.00000	4621.69800
6.70556	0.00000	4621.69800
6.70940	0.00000	4621.69800
6.71323	0.00000	4621.69800
6.71705	0.00000	4625.00000
6.72089	0.00000	4625.00000
6.72475	0.00000	4625.00000
6.72859	0.00000	4625.00000
6.73243	0.00000	4625.00000
6.73626	0.00000	4625.00000
6.74010	0.00000	4618.21300
6.74392	0.00000	4618.21300
6.74776	0.00000	4618.21300
6.75159	0.00000	4618.21300
6.75543	0.00000	4618.21300
6.75926	0.00000	4618.21300
6.76309	0.00000	4618.00300
6.76692	0.00000	4618.00300
6.77075	0.00000	4618.00300
6.77458	0.00000	4618.00300
6.77842	0.00000	4618.00300
6.78225	0.00000	4636.36400
6.78610	0.00000	4636.36400
6.78992	0.00000	4636.36400
6.79376	0.00000	4636.36400
6.79760	0.00000	4636.36400
6.80142	0.00000	4636.36400
6.80525	0.00000	4617.55800
6.80908	0.00000	4617.55800
6.81293	0.00000	4617.55800
6.81676	0.00000	4617.55800
6.82058	0.00000	4617.55800
6.82442	0.00000	4626.32700
6.82825	0.00000	4626.32700
6.83209	0.00000	4626.32700
6.83592	0.00000	4626.32700
6.83975	0.00000	4626.32700
6.84358	0.00000	4626.32700
6.84741	0.00000	4630.01500
6.85124	0.00000	4630.01500
6.85507	0.00000	4630.01500
6.85891	0.00000	4630.01500
6.86275	0.00000	4630.01500
6.86658	0.00000	4630.01500
6.87041	0.00000	4628.20000
6.87424	0.00000	4628.20000
6.87806	0.00000	4628.20000
6.88189	0.00000	4628.20000
6.88573	0.00000	4628.20000
6.88956	0.00000	4619.11100
6.89340	0.00000	4619.11100
6.89724	0.00000	4619.11100
6.90106	0.00000	4619.11100
6.90490	0.00000	4619.11100
6.90873	0.00000	4619.11100
6.91256	0.00000	4618.21300
6.91639	0.00000	4618.21300
6.92023	0.00000	4618.21300
6.92407	0.00000	4618.21300
6.92789	0.00000	4618.21300
6.93173	0.00000	4618.21300
6.93556	0.00000	4628.20000
6.93940	0.00000	4628.20000
6.94323	0.00000	4628.20000
6.94705	0.00000	4628.20000
6.95088	0.00000	4628.20000
6.95472	0.00000	4626.32700
6.95855	0.00000	4626.32700
6.96238	0.00000	4626.32700
6.96621	0.00000	4626.32700
6.97003	0.00000	4626.32700
6.97387	0.00000	4626.32700
6.97771	0.00000	4628.86200
6.98154	0.00000	4628.86200
6.98537	0.00000	4628.86200
6.98920	0.00000	4628.86200
6.99302	0.00000	4628.86200
6.99686	0.00000	4628.86200
7.00068	0.00000	4625.18800
7.00452	0.00000	4625.18800
7.00834	0.00000	4625.18800
7.01217	0.00000	4625.18800
7.01601	0.00000	4625.18800
7.01984	0.00000	4625.66300
7.02369	0.00000	4625.66300
7.02752	0.00000	4625.66300
7.03135	0.00000	4625.66300
7.03518	0.00000	4625.66300
7.03902	0.00000	4625.66300
7.04284	0.00000	4626.03600
7.04668	0.00000	4626.03600
7.05051	0.00000	4626.03600
7.05433	0.00000	4626.03600
7.05816	0.00000	4626.03600
7.06200	0.00000	4632.01800
7.06582	0.00000	4632.01800
7.06965	0.00000	4632.01800
7.07348	0.00000	4632.01800
7.07732	0.00000	4632.01800
7.08115	0.00000	4632.01800
7.08498	0.00000	4626.51200
7.08882	0.00000	4626.51200
7.09265	0.00000	4626.51200
7.09647	0.00000	4626.51200
7.10030	0.00000	4626.51200
7.10414	0.00000	4626.51200
7.10797	0.00000	4621.04000
7.11180	0.00000	4621.04000
7.11563	0.00000	4621.04000
7.11946	0.00000	4621.04000
7.12329	0.00000	4621.04000
7.12712	0.00000	4625.66300
7.13096	0.00000	4625.66300
7.13480	0.00000	4625.66300
7.13864	0.00000	4625.66300
7.14248	0.00000	4625.66300
7.14630	0.00000	4625.66300
7.15012	0.00000	4620.38400
7.15396	0.00000	4620.38400
7.15779	0.00000	4620.38400
7.16163	0.00000	4620.38400
7.16546	0.00000	4620.38400
7.16930	0.00000	4620.38400
7.17309	0.00000	4631.02400
7.17692	0.00000	4631.02400
7.18076	0.00000	4631.02400
7.18459	0.00000	4631.02400
7.18841	0.00000	4631.02400
7.19225	0.00000	4619.97700
7.19608	0.00000	4619.97700
7.19992	0.00000	4619.97700
7.20375	0.00000	4619.97700
7.20759	0.00000	4619.97700
7.21142	0.00000	4619.97700
7.21525	0.00000	4620.38400
7.21909	0.00000	4620.38400
7.22291	0.00000	4620.38400
7.22676	0.00000	4620.38400
7.23059	0.00000	4620.38400
7.23443	0.00000	4620.38400
7.23825	0.00000	4618.00300
7.24208	0.00000	4618.00300
7.24590	0.00000	4618.00300
7.24973	0.00000	4618.00300
7.25356	0.00000	4618.00300
7.25739	0.00000	4615.60400
7.26122	0.00000	4615.60400
7.26504	0.00000	4615.60400
7.26888	0.00000	4615.60400
7.27270	0.00000	4615.60400
7.27653	0.00000	4615.60400
7.28036	0.00000	4613.85900
7.28419	0.00000	4613.85900
7.28803	0.00000	4613.85900
7.29187	0.00000	4613.85900
7.29570	0.00000	4613.85900
7.29953	0.00000	4625.66300
7.30337	0.00000	4625.66300
7.30720	0.00000	4625.66300
7.31103	0.00000	4625.66300
7.31487	0.00000	4625.66300
7.31869	0.00000	4625.66300
7.32253	0.00000	4629.34900
7.32635	0.00000	4629.34900
7.33019	0.00000	4629.34900
7.33403	0.00000	4629.34900
7.33786	0.00000	4629.34900
7.34169	0.00000	4629.34900
7.34551	0.00000	4616.69200
7.34935	0.00000	4616.69200
7.35318	0.00000	4616.69200
7.35700	0.00000	4616.69200
7.36083	0.00000	4616.69200
7.36465	0.00000	4621.96000
7.36849	0.00000	4621.96000
7.37233	0.00000	4621.96000
7.37616	0.00000	4621.96000
7.37999	0.00000	4621.96000
7.38383	0.00000	4621.96000
7.38766	0.00000	4618.21300
7.39149	0.00000	4618.21300
7.39532	0.00000	4618.21300
7.39915	0.00000	4618.21300
7.40299	0.00000	4618.21300
7.40682	0.00000	4618.21300
7.41065	0.00000	4620.83900
7.41447	0.00000	4620.83900
7.41830	0.00000	4620.83900
7.42212	0.00000	4620.83900
7.42596	0.00000	4620.83900
7.42978	0.00000	4624.14600
7.43363	0.00000	4624.14600
7.43746	0.00000	4624.14600
7.44129	0.00000	4624.14600
7.44509	0.00000	4624.14600
7.44892	0.00000	4624.14600
7.45274	0.00000	4618.86800
7.45658	0.00000	4618.86800
7.46040	0.00000	4618.86800
7.46423	0.00000	4618.86800
7.46806	0.00000	4618.86800
7.47190	0.00000	4622.82000
7.47572	0.00000	4622.82000
7.47955	0.00000	4622.82000
7.48339	0.00000	4622.82000
7.48722	0.00000	4622.82000
7.49105	0.00000	4622.82000
7.49489	0.00000	4617.13400
7.49872	0.00000	4617.13400
7.50255	0.00000	4617.13400
7.50638	0.00000	4617.13400
7.51022	0.00000	4617.13400
7.51405	0.00000	4617.13400
7.51788	0.00000	4628.86200
7.52171	0.00000	4628.86200
7.52554	0.00000	4628.86200
7.52938	0.00000	4628.86200
7.53321	0.00000	4628.86200
7.53705	0.00000	4620.63700
7.54088	0.00000	4620.63700
7.54472	0.00000	4620.63700
7.54855	0.00000	4620.63700
7.55237	0.00000	4620.63700
7.55620	0.00000	4620.63700
7.56004	0.00000	4621.69800
7.56386	0.00000	4621.69800
7.56770	0.00000	4621.69800
7.57153	0.00000	4621.69800
7.57537	0.00000	4621.69800
7.57921	0.00000	4621.69800
7.58304	0.00000	4625.37600
7.58688	0.00000	4625.37600
7.59070	0.00000	4625.37600
7.59453	0.00000	4625.37600
7.59837	0.00000	4625.37600
7.60221	0.00000	4626.32700
7.60604	0.00000	4626.32700
7.60987	0.00000	4626.32700
7.61370	0.00000	4626.32700
7.61753	0.00000	4626.32700
7.62137	0.00000	4626.32700
7.62522	0.00000	4621.04000
7.62904	0.00000	4621.04000
7.63287	0.00000	4621.04000
7.63671	0.00000	4621.04000
7.64055	0.00000	4621.04000
7.64437	0.00000	4621.04000
7.64820	0.00000	4617.34600
7.65203	0.00000	4617.34600
7.65586	0.00000	4617.34600
7.65969	0.00000	4617.34600
7.66352	0.00000	4617.34600
7.66735	0.00000	4624.14600
7.67120	0.00000	4624.14600
7.67503	0.00000	4624.14600
7.67886	0.00000	4624.14600
7.68269	0.00000	4624.14600
7.68653	0.00000	4624.14600
7.69036	0.00000	4623.21000
7.69419	0.00000	4623.21000
7.69802	0.00000	4623.21000
7.70186	0.00000	4623.21000
7.70569	0.00000	4623.21000
7.70953	0.00000	4625.00000
7.71337	0.00000	4625.00000
7.71721	0.00000	4625.00000
7.72105	0.00000	4625.00000
7.72488	0.00000	4625.00000
7.72871	0.00000	4625.00000
7.73254	0.00000	4627.17600
7.73637	0.00000	4627.17600
7.74022	0.00000	4627.17600
7.74405	0.00000	4627.17600
7.74788	0.00000	4627.17600
7.75171	0.00000	4627.17600
7.75554	0.00000	4628.86200
7.75937	0.00000	4628.86200
7.76321	0.00000	4628.86200
7.76703	0.00000	4628.86200
7.77087	0.00000	4628.86200
7.77470	0.00000	4626.32700
7.77855	0.00000	4626.32700
7.78237	0.00000	4626.32700
7.78619	0.00000	4626.32700
7.79003	0.00000	4626.32700
7.79385	0.00000	4626.32700
7.79769	0.00000	4626.03600
7.80152	0.00000	4626.03600
7.80536	0.00000	4626.03600
7.80918	0.00000	4626.03600
7.81300	0.00000	4626.03600
7.81683	0.00000	4626.03600
7.82067	0.00000	4623.21000
7.82450	0.00000	4623.21000
7.82834	0.00000	4623.21000
7.83218	0.00000	4623.21000
7.83601	0.00000	4623.21000
7.83983	0.00000	4626.32700
7.84368	0.00000	4626.32700
7.84750	0.00000	4626.32700
7.85134	0.00000	4626.32700
7.85519	0.00000	4626.32700
7.85903	0.00000	4626.32700
7.86286	0.00000	4625.37600
7.86669	0.00000	4625.37600
7.87052	0.00000	4625.37600
7.87435	0.00000	4625.37600
7.87818	0.00000	4625.37600
7.88202	0.00000	4625.37600
7.88584	0.00000	4626.51200
7.88967	0.00000	4626.51200
7.89350	0.00000	4626.51200
7.89734	0.00000	4626.51200
7.90117	0.00000	4626.51200
7.90501	0.00000	4626.32700
7.90883	0.00000	4626.32700
7.91267	0.00000	4626.32700
7.91650	0.00000	4626.32700
7.92033	0.00000	4626.32700
7.92416	0.00000	4626.32700
7.92799	0.00000	4623.86800
7.93182	0.00000	4623.86800
7.93565	0.00000	4623.86800
7.93948	0.00000	4623.86800
7.94331	0.00000	4623.86800
7.94714	0.00000	4621.29900
7.95099	0.00000	4621.29900
7.95482	0.00000	4621.29900
7.95866	0.00000	4621.29900
7.96250	0.00000	4621.29900
7.96633	0.00000	4621.29900
7.97015	0.00000	4627.17600
7.97399	0.00000	4627.17600
7.97783	0.00000	4627.17600
7.98166	0.00000	4627.17600
7.98550	0.00000	4627.17600
7.98933	0.00000	4627.17600
7.99316	0.00000	4628.20000
7.99700	0.00000	4628.20000
8.00083	0.00000	4628.20000
8.00465	0.00000	4628.20000
8.00848	0.00000	4628.20000
8.01230	0.00000	4629.17300
8.01615	0.00000	4629.17300
8.01998	0.00000	4629.17300
8.02381	0.00000	4629.17300
8.02765	0.00000	4629.17300
8.03147	0.00000	4629.17300
8.03530	0.00000	4631.68800
8.03913	0.00000	4631.68800
8.04296	0.00000	4631.68800
8.04679	0.00000	4631.68800
8.05063	0.00000	4631.68800
8.05445	0.00000	4631.68800
8.05830	0.00000	4623.21000
8.06213	0.00000	4623.21000
8.06596	0.00000	4623.21000
8.06979	0.00000	4623.21000
8.07363	0.00000	4623.21000
8.07746	0.00000	4626.32700
8.08128	0.00000	4626.32700
8.08509	0.00000	4626.32700
8.08892	0.00000	4626.32700
8.09275	0.00000	4626.32700
8.09658	0.00000	4626.32700
8.10040	0.00000	4623.86800
8.10423	0.00000	4623.86800
8.10806	0.00000	4623.86800
8.11190	0.00000	4623.86800
8.11574	0.00000	4623.86800
8.11957	0.00000	4623.86800
8.12340	0.00000	4630.85300
8.12723	0.00000	4630.85300
8.13107	0.00000	4630.85300
8.13490	0.00000	4630.85300
8.13874	0.00000	4630.85300
8.14257	0.00000	4623.48200
8.14639	0.00000	4623.48200
8.15022	0.00000	4623.48200
8.15405	0.00000	4623.48200
8.15788	0.00000	4623.48200
8.16172	0.00000	4623.48200
8.16556	0.00000	4626.03600
8.16939	0.00000	4626.03600
8.17322	0.00000	4626.03600
8.17704	0.00000	4626.03600
8.18088	0.00000	4626.03600
8.18472	0.00000	4621.96000
8.18854	0.00000	4621.96000
8.19237	0.00000	4621.96000
8.19619	0.00000	4621.96000
8.20003	0.00000	4621.96000
8.20386	0.00000	4621.96000
8.20769	0.00000	4629.34900
8.21152	0.00000	4629.34900
8.21535	0.00000	4629.34900
8.21918	0.00000	4629.34900
8.22301	0.00000	4629.34900
8.22684	0.00000	4629.34900
8.23067	0.00000	4618.21300
8.23451	0.00000	4618.21300
8.23834	0.00000	4618.21300
8.24216	0.00000	4618.21300
8.24600	0.00000	4618.21300
8.24984	0.00000	4625.66300
8.25368	0.00000	4625.66300
8.25752	0.00000	4625.66300
8.26136	0.00000	4625.66300
8.26519	0.00000	4625.66300
8.26903	0.00000	4625.66300
8.27287	0.00000	4627.53900
8.27671	0.00000	4627.53900
8.28054	0.00000	4627.53900
8.28438	0.00000	4627.53900
8.28821	0.00000	4627.53900
8.29205	0.00000	4627.53900
8.29589	0.00000	4633.18300
8.29973	0.00000	4633.18300
8.30356	0.00000	4633.18300
8.30739	0.00000	4633.18300
8.31121	0.00000	4633.18300
8.31505	0.00000	4623.48200
8.31888	0.00000	4623.48200
8.32271	0.00000	4623.48200
8.32654	0.00000	4623.48200
8.33036	0.00000	4623.48200
8.33419	0.00000	4623.48200
8.33802	0.00000	4626.03600
8.34187	0.00000	4626.03600
8.34570	0.00000	4626.03600
8.34953	0.00000	4626.03600
8.35336	0.00000	4626.03600
8.35720	0.00000	4626.03600
8.36102	0.00000	4620.83900
8.36485	0.00000	4620.83900
8.36869	0.00000	4620.83900
8.37252	0.00000	4620.83900
8.37635	0.00000	4620.83900
8.38018	0.00000	4624.14600
8.38401	0.00000	4624.14600
8.38785	0.00000	4624.14600
8.39169	0.00000	4624.14600
8.39552	0.00000	4624.14600
8.39935	0.00000	4624.14600
8.40319	0.00000	4633.18300
8.40703	0.00000	4633.18300
8.41086	0.00000	4633.18300
8.41469	0.00000	4633.18300
8.41853	0.00000	4633.18300
8.42237	0.00000	4632.01800
8.42620	0.00000	4632.01800
8.43003	0.00000	4632.01800
8.43387	0.00000	4632.01800
8.43770	0.00000	4632.01800
8.44154	0.00000	4632.01800
8.44536	0.00000	4629.34900
8.44920	0.00000	4629.34900
8.45303	0.00000	4629.34900
8.45687	0.00000	4629.34900
8.46070	0.00000	4629.34900
8.46454	0.00000	4629.34900
8.46836	0.00000	4621.04000
8.47220	0.00000	4621.04000
8.47603	0.00000	4621.04000
8.47986	0.00000	4621.04000
8.48369	0.00000	4621.04000
8.48752	0.00000	4625.66300
8.49137	0.00000	4625.66300
8.49521	0.00000	4625.66300
8.49904	0.00000	4625.66300
8.50287	0.00000	4625.66300
8.50670	0.00000	4625.66300
8.51054	0.00000	4621.04000
8.51437	0.00000	4621.04000
8.51819	0.00000	4621.04000
8.52203	0.00000	4621.04000
8.52586	0.00000	4621.04000
8.52969	0.00000	4621.04000
8.53352	0.00000	4617.55800
8.53736	0.00000	4617.55800
8.54120	0.00000	4617.55800
8.54503	0.00000	4617.55800
8.54887	0.00000	4617.55800
8.55270	0.00000	4630.68100
8.55654	0.00000	4630.68100
8.56037	0.00000	4630.68100
8.56421	0.00000	4630.68100
8.56804	0.00000	4630.68100
8.57189	0.00000	4630.68100
8.57572	0.00000	4628.86200
8.57956	0.00000	4628.86200
8.58339	0.00000	4628.86200
8.58721	0.00000	4628.86200
8.59105	0.00000	4628.86200
8.59488	0.00000	4628.86200
8.59870	0.00000	4630.01500
8.60253	0.00000	4630.01500
8.60637	0.00000	4630.01500
8.61020	0.00000	4630.01500
8.61403	0.00000	4630.01500
8.61786	0.00000	4632.01800
8.62170	0.00000	4632.01800
8.62553	0.00000	4632.01800
8.62936	0.00000	4632.01800
8.63320	0.00000	4632.01800
8.63703	0.00000	4632.01800
8.64087	0.00000	4623.21000
8.64471	0.00000	4623.21000
8.64855	0.00000	4623.21000
8.65238	0.00000	4623.21000
8.65621	0.00000	4623.21000
8.66004	0.00000	4627.84100
8.66386	0.00000	4627.84100
8.66769	0.00000	4627.84100
8.67152	0.00000	4627.84100
8.67535	0.00000	4627.84100
8.67919	0.00000	4627.84100
8.68302	0.00000	4629.34900
8.68684	0.00000	4629.34900
8.69068	0.00000	4629.34900
8.69451	0.00000	4629.34900
8.69834	0.00000	4629.34900
8.70218	0.00000	4629.34900
8.70602	0.00000	4623.21000
8.70985	0.00000	4623.21000
8.71368	0.00000	4623.21000
8.71751	0.00000	4623.21000
8.72135	0.00000	4623.21000
8.72518	0.00000	4625.00000
8.72901	0.00000	4625.00000
8.73283	0.00000	4625.00000
8.73667	0.00000	4625.00000
8.74049	0.00000	4625.00000
8.74433	0.00000	4625.00000
8.74816	0.00000	4626.03600
8.75200	0.00000	4626.03600
8.75583	0.00000	4626.03600
8.75965	0.00000	4626.03600
8.76349	0.00000	4626.03600
8.76731	0.00000	4626.03600
8.77115	0.00000	4623.86800
8.77498	0.00000	4623.86800
8.77882	0.00000	4623.86800
8.78264	0.00000	4623.86800
8.78648	0.00000	4623.86800
8.79031	0.00000	4632.01800
8.79414	0.00000	4632.01800
8.79797	0.00000	4632.01800
8.80180	0.00000	4632.01800
8.80563	0.00000	4632.01800
8.80947	0.00000	4632.01800
8.81330	0.00000	4626.69700
8.81714	0.00000	4626.69700
8.82098	0.00000	4626.69700
8.82480	0.00000	4626.69700
8.82865	0.00000	4626.69700
8.83248	0.00000	4626.69700
8.83631	0.00000	4628.68500
8.84015	0.00000	4628.68500
8.84398	0.00000	4628.68500
8.84780	0.00000	4628.68500
8.85163	0.00000	4628.68500
8.85546	0.00000	4621.29900
8.85930	0.00000	4621.29900
8.86313	0.00000	4621.29900
8.86696	0.00000	4621.29900
8.87079	0.00000	4621.29900
8.87461	0.00000	4621.29900
8.87843	0.00000	4628.20000
8.88226	0.00000	4628.20000
8.88610	0.00000	4628.20000
8.88993	0.00000	4628.20000
8.89376	0.00000	4628.20000
8.89759	0.00000	4624.14600
8.90143	0.00000	4624.14600
8.90526	0.00000	4624.14600
8.90909	0.00000	4624.14600
8.91292	0.00000	4624.14600
8.91675	0.00000	4624.14600
8.92059	0.00000	4629.34900
8.92441	0.00000	4629.34900
8.92824	0.00000	4629.34900
8.93208	0.00000	4629.34900
8.93593	0.00000	4629.34900
8.93975	0.00000	4629.34900
8.94359	0.00000	4626.69700
8.94743	0.00000	4626.69700
8.95126	0.00000	4626.69700
8.95510	0.00000	4626.69700
8.95893	0.00000	4626.69700
8.96276	0.00000	4626.32700
8.96659	0.00000	4626.32700
8.97042	0.00000	4626.32700
8.97425	0.00000	4626.32700
8.97808	0.00000	4626.32700
8.98191	0.00000	4626.32700
8.98574	0.00000	4615.38500
8.98957	0.00000	4615.38500
8.99341	0.00000	4615.38500
8.99723	0.00000	4615.38500
9.00107	0.00000	4615.38500
9.00491	0.00000	4615.38500
9.00874	0.00000	4623.21000
9.01257	0.00000	4623.21000
9.01640	0.00000	4623.21000
9.02024	0.00000	4623.21000
9.02406	0.00000	4623.21000
9.02789	0.00000	4618.45100
9.03172	0.00000	4618.45100
9.03556	0.00000	4618.45100
9.03938	0.00000	4618.45100
9.04322	0.00000	4618.45100
9.04706	0.00000	4618.45100
9.05089	0.00000	4620.38400
9.05472	0.00000	4620.38400
9.05856	0.00000	4620.38400
9.06240	0.00000	4620.38400
9.06622	0.00000	4620.38400
9.07005	0.00000	4620.38400
9.07388	0.00000	4625.00000
9.07771	0.00000	4625.00000
9.08154	0.00000	4625.00000
9.08537	0.00000	4625.00000
9.08922	0.00000	4625.00000
9.09307	0.00000	4630.68100
9.09692	0.00000	4630.68100
9.10076	0.00000	4630.68100
9.10460	0.00000	4630.68100
9.10844	0.00000	4630.68100
9.11227	0.00000	4630.68100
9.11612	0.00000	4623.21000
9.11994	0.00000	4623.21000
9.12377	0.00000	4623.21000
9.12760	0.00000	4623.21000
9.13144	0.00000	4623.21000
9.13527	0.00000	4623.48200
9.13912	0.00000	4623.48200
9.14295	0.00000	4623.48200
9.14679	0.00000	4623.48200
9.15063	0.00000	4623.48200
9.15445	0.00000	4623.48200
9.15829	0.00000	4618.86800
9.16212	0.00000	4618.86800
9.16595	0.00000	4618.86800
9.16978	0.00000	4618.86800
9.17361	0.00000	4618.86800
9.17745	0.00000	4618.86800
9.18128	0.00000	4628.86200
9.18509	0.00000	4628.86200
9.18892	0.00000	4628.86200
9.19275	0.00000	4628.86200
9.19658	0.00000	4628.86200
9.20041	0.00000	4623.48200
9.20426	0.00000	4623.48200
9.20810	0.00000	4623.48200
9.21193	0.00000	4623.48200
9.21576	0.00000	4623.48200
9.21960	0.00000	4623.48200
9.22342	0.00000	4625.37600
9.22726	0.00000	4625.37600
9.23108	0.00000	4625.37600
9.23492	0.00000	4625.37600
9.23875	0.00000	4625.37600
9.24258	0.00000	4625.37600
9.24641	0.00000	4628.86200
9.25023	0.00000	4628.86200
9.25406	0.00000	4628.86200
9.25791	0.00000	4628.86200
9.26174	0.00000	4628.86200
9.26557	0.00000	4626.32700
9.26941	0.00000	4626.32700
9.27324	0.00000	4626.32700
9.27708	0.00000	4626.32700
9.28091	0.00000	4626.32700
9.28474	0.00000	4626.32700
9.28857	0.00000	4620.38400
9.29240	0.00000	4620.38400
9.29624	0.00000	4620.38400
9.30007	0.00000	4620.38400
9.30390	0.00000	4620.38400
9.30773	0.00000	4621.29900
9.31157	0.00000	4621.29900
9.31540	0.00000	4621.29900
9.31924	0.00000	4621.29900
9.32307	0.00000	4621.29900
9.32690	0.00000	4621.29900
9.33073	0.00000	4630.01500
9.33457	0.00000	4630.01500
9.33840	0.00000	4630.01500
9.34223	0.00000	4630.01500
9.34607	0.00000	4630.01500
9.34991	0.00000	4630.01500
9.35374	0.00000	4633.84700
9.35758	0.00000	4633.84700
9.36141	0.00000	4633.84700
9.36525	0.00000	4633.84700
9.36908	0.00000	4633.84700
9.37293	0.00000	4627.84100
9.37677	0.00000	4627.84100
9.38060	0.00000	4627.84100
9.38444	0.00000	4627.84100
9.38827	0.00000	4627.84100
9.39210	0.00000	4627.84100
9.39593	0.00000	4621.04000
9.39976	0.00000	4621.04000
9.40359	0.00000	4621.04000
9.40743	0.00000	4621.04000
9.41126	0.00000	4621.04000
9.41509	0.00000	4621.04000
9.41892	0.00000	4623.21000
9.42275	0.00000	4623.21000
9.42659	0.00000	4623.21000
9.43042	0.00000	4623.21000
9.43425	0.00000	4623.21000
9.43808	0.00000	4623.48200
9.44192	0.00000	4623.48200
9.44575	0.00000	4623.48200
9.44959	0.00000	4623.48200
9.45342	0.00000	4623.48200
9.45725	0.00000	4623.48200
9.46108	0.00000	4629.52500
9.46493	0.00000	4629.52500
9.46876	0.00000	4629.52500
9.47260	0.00000	4629.52500
9.47644	0.00000	4629.52500
9.48027	0.00000	4629.52500
9.48409	0.00000	4622.35600
9.48793	0.00000	4622.35600
9.49176	0.00000	4622.35600
9.49559	0.00000	4622.35600
9.49943	0.00000	4622.35600
9.50329	0.00000	4625.66300
9.50711	0.00000	4625.66300
9.51094	0.00000	4625.66300
9.51478	0.00000	4625.66300
9.51863	0.00000	4625.66300
9.52245	0.00000	4625.66300
9.52628	0.00000	4629.52500
9.53011	0.00000	4629.52500
9.53395	0.00000	4629.52500
9.53778	0.00000	4629.52500
9.54161	0.00000	4629.52500
9.54545	0.00000	4626.32700
9.54928	0.00000	4626.32700
9.55309	0.00000	4626.32700
9.55692	0.00000	4626.32700
9.56075	0.00000	4626.32700
9.56458	0.00000	4626.32700
9.56841	0.00000	4622.15900
9.57224	0.00000	4622.15900
9.57607	0.00000	4622.15900
9.57990	0.00000	4622.15900
9.58374	0.00000	4622.15900
9.58757	0.00000	4622.15900
9.59140	0.00000	4623.21000
9.59524	0.00000	4623.21000
9.59907	0.00000	4623.21000
9.60290	0.00000	4623.21000
9.60674	0.00000	4623.21000
9.61058	0.00000	4628.50700
9.61443	0.00000	4628.50700
9.61826	0.00000	4628.50700
9.62209	0.00000	4628.50700
9.62592	0.00000	4628.50700
9.62976	0.00000	4628.50700
9.63359	0.00000	4626.69700
9.63743	0.00000	4626.69700
9.64126	0.00000	4626.69700
9.64509	0.00000	4626.69700
9.64891	0.00000	4626.69700
9.65274	0.00000	4626.69700
9.65658	0.00000	4633.18300
9.66041	0.00000	4633.18300
9.66423	0.00000	4633.18300
9.66807	0.00000	4633.18300
9.67190	0.00000	4633.18300
9.67572	0.00000	4620.63700
9.67957	0.00000	4620.63700
9.68340	0.00000	4620.63700
9.68723	0.00000	4620.63700
9.69106	0.00000	4620.63700
9.69489	0.00000	4620.63700
9.69872	0.00000	4623.21000
9.70256	0.00000	4623.21000
9.70639	0.00000	4623.21000
9.71023	0.00000	4623.21000
9.71406	0.00000	4623.21000
9.71789	0.00000	4623.21000
9.72172	0.00000	4626.69700
9.72556	0.00000	4626.69700
9.72939	0.00000	4626.69700
9.73323	0.00000	4626.69700
9.73706	0.00000	4626.69700
9.74090	0.00000	4628.50700
9.74472	0.00000	4628.50700
9.74856	0.00000	4628.50700
9.75238	0.00000	4628.50700
9.75622	0.00000	4628.50700
9.76005	0.00000	4628.50700
9.76390	0.00000	4623.86800
9.76773	0.00000	4623.86800
9.77157	0.00000	4623.86800
9.77540	0.00000	4623.86800
9.77923	0.00000	4623.86800
9.78306	0.00000	4631.34900
9.78689	0.00000	4631.34900
9.79074	0.00000	4631.34900
9.79457	0.00000	4631.34900
9.79841	0.00000	4631.34900
9.80224	0.00000	4631.34900
9.80609	0.00000	4629.34900
9.80993	0.00000	4629.34900
9.81376	0.00000	4629.34900
9.81759	0.00000	4629.34900
9.82141	0.00000	4629.34900
9.82525	0.00000	4629.34900
9.82908	0.00000	4623.21000
9.83292	0.00000	4623.21000
9.83674	0.00000	4623.21000
9.84058	0.00000	4623.21000
9.84441	0.00000	4623.21000
9.84824	0.00000	4631.34900
9.85208	0.00000	4631.34900
9.85591	0.00000	4631.34900
9.85974	0.00000	4631.34900
9.86357	0.00000	4631.34900
9.86740	0.00000	4631.34900
9.87124	0.00000	4625.37600
9.87506	0.00000	4625.37600
9.87890	0.00000	4625.37600
9.88272	0.00000	4625.37600
9.88655	0.00000	4625.37600
9.89038	0.00000	4625.37600
9.89421	0.00000	4626.03600
9.89804	0.00000	4626.03600
9.90186	0.00000	4626.03600
9.90568	0.00000	4626.03600
9.90953	0.00000	4626.03600
9.91336	0.00000	4627.84100
9.91720	0.00000	4627.84100
9.92104	0.00000	4627.84100
9.92487	0.00000	4627.84100
9.92870	0.00000	4627.84100
9.93253	0.00000	4627.84100
9.93636	0.00000	4629.69900
9.94019	0.00000	4629.69900
9.94403	0.00000	4629.69900
9.94786	0.00000	4629.69900
9.95169	0.00000	4629.69900
9.95552	0.00000	4629.69900
9.95935	0.00000	4629.52500
9.96317	0.00000	4629.52500
9.96701	0.00000	4629.52500
9.97085	0.00000	4629.52500
9.97468	0.00000	4629.52500
9.97851	0.00000	4632.01800
9.98235	0.00000	4632.01800
9.98619	0.00000	4632.01800
9.99002	0.00000	4632.01800
9.99385	0.00000	4632.01800
9.99769	0.00000	4632.01800
