Time (s)   Thrust (N)   RPM
0.00030	0.00000	4316.32600
0.00419	0.00000	4316.32600
0.00806	0.00000	4316.32600
0.01188	0.00000	4316.32600
0.01572	0.00000	4299.75400
0.01956	0.00000	4299.75400
0.02347	0.00000	4299.75400
0.02736	0.00000	4299.75400
0.03119	0.00000	4299.75400
0.03503	0.00000	4200.87000
0.03886	0.00000	4200.87000
0.04270	0.00000	4200.87000
0.04652	0.00000	4200.87000
0.05035	0.00000	4200.87000
0.05418	0.00000	4107.89700
0.05801	0.00000	4107.89700
0.06183	0.00000	4107.89700
0.06565	0.00000	4107.89700
0.06949	0.00000	4107.89700
0.07332	0.00000	4036.23500
0.07715	0.00000	4036.23500
0.08097	0.00000	4036.23500
0.08479	0.00000	4036.23500
0.08862	0.00000	4036.23500
0.09243	0.00000	3964.84300
0.09627	0.00000	3964.84300
0.10010	0.00000	3964.84300
0.10393	0.00000	3964.84300
0.10776	0.00000	3964.84300
0.11159	0.00000	3911.46700
0.11541	0.00000	3911.46700
0.11924	0.00000	3911.46700
0.12307	0.00000	3911.46700
0.12689	0.00000	3867.08300
0.13072	0.00000	3867.08300
0.13455	0.00000	3867.08300
0.13836	0.00000	3867.08300
0.14218	0.00000	3867.08300
0.14600	0.00000	3820.37500
0.14983	0.00000	3820.37500
0.15365	0.00000	3820.37500
0.15747	0.00000	3820.37500
0.16129	0.00000	3820.37500
0.16512	0.00000	3780.35000
0.16894	0.00000	3780.35000
0.17277	0.00000	3780.35000
0.17659	0.00000	3780.35000
0.18043	0.00000	3780.35000
0.18426	0.00000	3746.60000
0.18809	0.00000	3746.60000
0.19192	0.00000	3746.60000
0.19574	0.00000	3746.60000
0.19957	0.00000	3708.75300
0.20340	0.00000	3708.75300
0.20723	0.00000	3708.75300
0.21106	0.00000	3708.75300
0.21488	0.00000	3708.75300
0.21871	0.00000	3681.19200
0.22253	0.00000	3681.19200
0.22636	0.00000	3681.19200
0.23018	0.00000	3681.19200
0.23401	0.00000	3681.19200
0.23783	0.00000	3663.83200
0.24165	0.00000	3663.83200
0.24549	0.00000	3663.83200
0.24931	0.00000	3663.83200
0.25314	0.00000	3645.44600
0.25696	0.00000	3645.44600
0.26078	0.00000	3645.44600
0.26460	0.00000	3645.44600
0.26843	0.00000	3645.44600
0.27226	0.00000	3625.00000
0.27610	0.00000	3625.00000
0.27992	0.00000	3625.00000
0.28375	0.00000	3625.00000
0.28758	0.00000	3613.44500
0.29140	0.00000	3613.44500
0.29523	0.00000	3613.44500
0.29906	0.00000	3613.44500
0.30290	0.00000	3613.44500
0.30673	0.00000	3595.50500
0.31055	0.00000	3595.50500
0.31439	0.00000	3595.50500
0.31823	0.00000	3595.50500
0.32206	0.00000	3595.50500
0.32588	0.00000	3582.24500
0.32971	0.00000	3582.24500
0.33355	0.00000	3582.24500
0.33737	0.00000	3582.24500
0.34121	0.00000	3573.77800
0.34504	0.00000	3573.77800
0.34886	0.00000	3573.77800
0.35269	0.00000	3573.77800
0.35653	0.00000	3573.77800
0.36036	0.00000	3564.07800
0.36418	0.00000	3564.07800
0.36800	0.00000	3564.07800
0.37183	0.00000	3564.07800
0.37565	0.00000	3555.42400
0.37949	0.00000	3555.42400
0.38332	0.00000	3555.42400
0.38715	0.00000	3555.42400
0.39098	0.00000	3555.42400
0.39481	0.00000	3545.96600
0.39863	0.00000	3545.96600
0.40246	0.00000	3545.96600
0.40629	0.00000	3545.96600
0.41011	0.00000	3540.87900
0.41393	0.00000	3540.87900
0.41777	0.00000	3540.87900
0.42159	0.00000	3540.87900
0.42542	0.00000	3540.87900
0.42924	0.00000	3530.03700
0.43306	0.00000	3530.03700
0.43689	0.00000	3530.03700
0.44073	0.00000	3530.03700
0.44456	0.00000	3530.03700
0.44839	0.00000	3533.58500
0.45222	0.00000	3533.58500
0.45604	0.00000	3533.58500
0.45987	0.00000	3533.58500
0.46369	0.00000	3518.73800
0.46752	0.00000	3518.73800
0.47134	0.00000	3518.73800
0.47517	0.00000	3518.73800
0.47899	0.00000	3518.73800
0.48282	0.00000	3519.83000
0.48664	0.00000	3519.83000
0.49046	0.00000	3519.83000
0.49430	0.00000	3519.83000
0.49812	0.00000	3514.95700
0.50194	0.00000	3514.95700
0.50576	0.00000	3514.95700
0.50958	0.00000	3514.95700
0.51341	0.00000	3514.95700
0.51722	0.00000	3512.74700
0.52106	0.00000	3512.74700
0.52489	0.00000	3512.74700
0.52873	0.00000	3512.74700
0.53254	0.00000	3507.37300
0.53636	0.00000	3507.37300
0.54019	0.00000	3507.37300
0.54402	0.00000	3507.37300
0.54785	0.00000	3507.37300
0.55168	0.00000	3501.89000
0.55551	0.00000	3501.89000
0.55934	0.00000	3501.89000
0.56316	0.00000	3501.89000
0.56698	0.00000	3500.23700
0.57081	0.00000	3500.23700
0.57463	0.00000	3500.23700
0.57846	0.00000	3500.23700
0.58229	0.00000	3500.23700
0.58611	0.00000	3501.65500
0.58993	0.00000	3501.65500
0.59375	0.00000	3501.65500
0.59758	0.00000	3501.65500
0.60140	0.00000	3499.76100
0.60523	0.00000	3499.76100
0.60905	0.00000	3499.76100
0.61287	0.00000	3499.76100
0.61670	0.00000	3499.76100
0.62052	0.00000	3497.63000
0.62435	0.00000	3497.63000
0.62812	0.00000	3497.63000
0.63194	0.00000	3497.63000
0.63576	0.00000	3495.94400
0.63959	0.00000	3495.94400
0.64341	0.00000	3495.94400
0.64724	0.00000	3495.94400
0.65107	0.00000	3495.94400
0.65489	0.00000	3487.21500
0.65872	0.00000	3487.21500
0.66254	0.00000	3487.21500
0.66637	0.00000	3487.21500
0.67020	0.00000	3488.78800
0.67403	0.00000	3488.78800
0.67786	0.00000	3488.78800
0.68168	0.00000	3488.78800
0.68551	0.00000	3488.78800
0.68932	0.00000	3486.96600
0.69314	0.00000	3486.96600
0.69697	0.00000	3486.96600
0.70079	0.00000	3486.96600
0.70461	0.00000	3481.37500
0.70844	0.00000	3481.37500
0.71227	0.00000	3481.37500
0.71609	0.00000	3481.37500
0.71993	0.00000	3481.37500
0.72375	0.00000	3486.71700
0.72758	0.00000	3486.71700
0.73140	0.00000	3486.71700
0.73522	0.00000	3486.71700
0.73905	0.00000	3488.53800
0.74287	0.00000	3488.53800
0.74669	0.00000	3488.53800
0.75052	0.00000	3488.53800
0.75433	0.00000	3488.53800
0.75816	0.00000	3476.04300
0.76198	0.00000	3476.04300
0.76580	0.00000	3476.04300
0.76963	0.00000	3476.04300
0.77346	0.00000	3484.95700
0.77729	0.00000	3484.95700
0.78111	0.00000	3484.95700
0.78493	0.00000	3484.95700
0.78876	0.00000	3484.95700
0.79259	0.00000	3483.41200
0.79641	0.00000	3483.41200
0.80023	0.00000	3483.41200
0.80405	0.00000	3483.41200
0.80787	0.00000	3484.70300
0.81170	0.00000	3484.70300
0.81552	0.00000	3484.70300
0.81935	0.00000	3484.70300
0.82318	0.00000	3484.70300
0.82700	0.00000	3482.90600
0.83083	0.00000	3482.90600
0.83465	0.00000	3482.90600
0.83848	0.00000	3482.90600
0.84231	0.00000	3484.70300
0.84613	0.00000	3484.70300
0.84996	0.00000	3484.70300
0.85377	0.00000	3484.70300
0.85760	0.00000	3484.70300
0.86142	0.00000	3479.60100
0.86525	0.00000	3479.60100
0.86907	0.00000	3479.60100
0.87290	0.00000	3479.60100
0.87672	0.00000	3477.79300
0.88056	0.00000	3477.79300
0.88438	0.00000	3477.79300
0.88820	0.00000	3477.79300
0.89203	0.00000	3477.79300
0.89585	0.00000	3479.34400
0.89967	0.00000	3479.34400
0.90349	0.00000	3479.34400
0.90731	0.00000	3479.34400
0.91113	0.00000	3480.86100
0.91496	0.00000	3480.86100
0.91879	0.00000	3480.86100
0.92261	0.00000	3480.86100
0.92644	0.00000	3480.86100
0.93027	0.00000	3479.34400
0.93409	0.00000	3479.34400
0.93792	0.00000	3479.34400
0.94175	0.00000	3479.34400
0.94557	0.00000	3477.53300
0.94939	0.00000	3477.53300
0.95322	0.00000	3477.53300
0.95704	0.00000	3477.53300
0.96087	0.00000	3477.53300
0.96470	0.00000	3475.78300
0.96852	0.00000	3475.78300
0.97235	0.00000	3475.78300
0.97612	0.00000	3475.78300
0.97994	0.00000	3473.94800
0.98376	0.00000	3473.94800
0.98759	0.00000	3473.94800
0.99141	0.00000	3473.94800
0.99523	0.00000	3473.94800
0.99906	0.00000	3475.52300
1.00288	0.00000	3475.52300
1.00670	0.00000	3475.52300
1.01053	0.00000	3475.52300
1.01435	0.00000	3473.68400
1.01819	0.00000	3473.68400
1.02201	0.00000	3473.68400
1.02583	0.00000	3473.68400
1.02965	0.00000	3473.68400
1.03348	0.00000	3471.95800
1.03731	0.00000	3471.95800
1.04113	0.00000	3471.95800
1.04496	0.00000	3471.95800
1.04878	0.00000	3477.53300
1.05261	0.00000	3477.53300
1.05643	0.00000	3477.53300
1.06025	0.00000	3477.53300
1.06407	0.00000	3477.53300
1.06790	0.00000	3475.52300
1.07172	0.00000	3475.52300
1.07554	0.00000	3475.52300
1.07938	0.00000	3475.52300
1.08320	0.00000	3480.86100
1.08702	0.00000	3480.86100
1.09085	0.00000	3480.86100
1.09467	0.00000	3480.86100
1.09850	0.00000	3480.86100
1.10232	0.00000	3479.08700
1.10614	0.00000	3479.08700
1.10996	0.00000	3479.08700
1.11378	0.00000	3479.08700
1.11761	0.00000	3477.79300
1.12145	0.00000	3477.79300
1.12527	0.00000	3477.79300
1.12910	0.00000	3477.79300
1.13293	0.00000	3477.79300
1.13675	0.00000	3472.22200
1.14058	0.00000	3472.22200
1.14440	0.00000	3472.22200
1.14822	0.00000	3472.22200
1.15204	0.00000	3473.41900
1.15586	0.00000	3473.41900
1.15968	0.00000	3473.41900
1.16350	0.00000	3473.41900
1.16733	0.00000	3473.41900
1.17116	0.00000	3475.26100
1.17497	0.00000	3475.26100
1.17882	0.00000	3475.26100
1.18264	0.00000	3475.26100
1.18647	0.00000	3473.68400
1.19029	0.00000	3473.68400
1.19412	0.00000	3473.68400
1.19794	0.00000	3473.68400
1.20176	0.00000	3473.68400
1.20559	0.00000	3475.78300
1.20941	0.00000	3475.78300
1.21323	0.00000	3475.78300
1.21705	0.00000	3475.78300
1.22088	0.00000	3473.94800
1.22471	0.00000	3473.94800
1.22853	0.00000	3473.94800
1.23236	0.00000	3473.94800
1.23618	0.00000	3473.94800
1.24001	0.00000	3475.52300
1.24382	0.00000	3475.52300
1.24765	0.00000	3475.52300
1.25147	0.00000	3475.52300
1.25529	0.00000	3477.27200
1.25911	0.00000	3477.27200
1.26294	0.00000	3477.27200
1.26676	0.00000	3477.27200
1.27058	0.00000	3477.27200
1.27440	0.00000	3475.26100
1.27823	0.00000	3475.26100
1.28205	0.00000	3475.26100
1.28588	0.00000	3475.26100
1.28970	0.00000	3477.53300
1.29353	0.00000	3477.53300
1.29735	0.00000	3477.53300
1.30117	0.00000	3477.53300
1.30499	0.00000	3477.53300
1.30881	0.00000	3475.78300
1.31263	0.00000	3475.78300
1.31645	0.00000	3475.78300
1.32027	0.00000	3475.78300
1.32410	0.00000	3480.86100
1.32793	0.00000	3480.86100
1.33175	0.00000	3480.86100
1.33558	0.00000	3480.86100
1.33941	0.00000	3480.86100
1.34323	0.00000	3475.52300
1.34705	0.00000	3475.52300
1.35088	0.00000	3475.52300
1.35470	0.00000	3475.52300
1.35853	0.00000	3477.53300
1.36235	0.00000	3477.53300
1.36617	0.00000	3477.53300
1.37000	0.00000	3477.53300
1.37382	0.00000	3477.53300
1.37765	0.00000	3475.52300
1.38148	0.00000	3475.52300
1.38531	0.00000	3475.52300
1.38913	0.00000	3475.52300
1.39295	0.00000	3473.94800
1.39678	0.00000	3473.94800
1.40061	0.00000	3473.94800
1.40443	0.00000	3473.94800
1.40825	0.00000	3473.94800
1.41207	0.00000	3475.52300
1.41591	0.00000	3475.52300
1.41974	0.00000	3475.52300
1.42356	0.00000	3475.52300
1.42738	0.00000	3470.09500
1.43122	0.00000	3470.09500
1.43504	0.00000	3470.09500
1.43887	0.00000	3470.09500
1.44269	0.00000	3470.09500
1.44651	0.00000	3475.52300
1.45034	0.00000	3475.52300
1.45417	0.00000	3475.52300
1.45800	0.00000	3475.52300
1.46183	0.00000	3470.09500
1.46566	0.00000	3470.09500
1.46948	0.00000	3470.09500
1.47331	0.00000	3470.09500
1.47713	0.00000	3470.09500
1.48095	0.00000	3479.08700
1.48478	0.00000	3479.08700
1.48860	0.00000	3479.08700
1.49243	0.00000	3479.08700
1.49625	0.00000	3480.86100
1.50007	0.00000	3480.86100
1.50390	0.00000	3480.86100
1.50773	0.00000	3480.86100
1.51155	0.00000	3480.86100
1.51537	0.00000	3468.39300
1.51919	0.00000	3468.39300
1.52302	0.00000	3468.39300
1.52684	0.00000	3468.39300
1.53067	0.00000	3477.53300
1.53450	0.00000	3477.53300
1.53832	0.00000	3477.53300
1.54216	0.00000	3477.53300
1.54597	0.00000	3477.53300
1.54980	0.00000	3475.78300
1.55362	0.00000	3475.78300
1.55744	0.00000	3475.78300
1.56126	0.00000	3475.78300
1.56508	0.00000	3474.21200
1.56890	0.00000	3474.21200
1.57272	0.00000	3474.21200
1.57654	0.00000	3474.21200
1.58037	0.00000	3474.21200
1.58419	0.00000	3475.52300
1.58802	0.00000	3475.52300
1.59184	0.00000	3475.52300
1.59566	0.00000	3475.52300
1.59948	0.00000	3477.27200
1.60331	0.00000	3477.27200
1.60713	0.00000	3477.27200
1.61095	0.00000	3477.27200
1.61478	0.00000	3477.27200
1.61860	0.00000	3475.78300
1.62243	0.00000	3475.78300
1.62626	0.00000	3475.78300
1.63008	0.00000	3475.78300
1.63390	0.00000	3473.94800
1.63773	0.00000	3473.94800
1.64156	0.00000	3473.94800
1.64538	0.00000	3473.94800
1.64921	0.00000	3473.94800
1.65303	0.00000	3479.34400
1.65685	0.00000	3479.34400
1.66068	0.00000	3479.34400
1.66450	0.00000	3479.34400
1.66833	0.00000	3473.94800
1.67212	0.00000	3473.94800
1.67595	0.00000	3473.94800
1.67978	0.00000	3473.94800
1.68360	0.00000	3473.94800
1.68742	0.00000	3475.78300
1.69125	0.00000	3475.78300
1.69508	0.00000	3475.78300
1.69891	0.00000	3475.78300
1.70273	0.00000	3477.27200
1.70655	0.00000	3477.27200
1.71038	0.00000	3477.27200
1.71420	0.00000	3477.27200
1.71802	0.00000	3477.27200
1.72184	0.00000	3475.78300
1.72566	0.00000	3475.78300
1.72949	0.00000	3475.78300
1.73330	0.00000	3475.78300
1.73713	0.00000	3481.11800
1.74096	0.00000	3481.11800
1.74479	0.00000	3481.11800
1.74862	0.00000	3481.11800
1.75244	0.00000	3481.11800
1.75626	0.00000	3475.78300
1.76009	0.00000	3475.78300
1.76392	0.00000	3475.78300
1.76774	0.00000	3475.78300
1.77157	0.00000	3477.27200
1.77540	0.00000	3477.27200
1.77922	0.00000	3477.27200
1.78304	0.00000	3477.27200
1.78686	0.00000	3477.27200
1.79069	0.00000	3479.34400
1.79451	0.00000	3479.34400
1.79833	0.00000	3479.34400
1.80216	0.00000	3479.34400
1.80597	0.00000	3481.11800
1.80981	0.00000	3481.11800
1.81364	0.00000	3481.11800
1.81747	0.00000	3481.11800
1.82129	0.00000	3481.11800
1.82512	0.00000	3479.34400
1.82894	0.00000	3479.34400
1.83276	0.00000	3479.34400
1.83659	0.00000	3479.34400
1.84041	0.00000	3477.27200
1.84424	0.00000	3477.27200
1.84807	0.00000	3477.27200
1.85190	0.00000	3477.27200
1.85573	0.00000	3477.27200
1.85955	0.00000	3479.34400
1.86337	0.00000	3479.34400
1.86720	0.00000	3479.34400
1.87102	0.00000	3479.34400
1.87484	0.00000	3481.11800
1.87867	0.00000	3481.11800
1.88250	0.00000	3481.11800
1.88632	0.00000	3481.11800
1.89015	0.00000	3481.11800
1.89398	0.00000	3482.65200
1.89781	0.00000	3482.65200
1.90163	0.00000	3482.65200
1.90545	0.00000	3482.65200
1.90927	0.00000	3477.27200
1.91309	0.00000	3477.27200
1.91691	0.00000	3477.27200
1.92074	0.00000	3477.27200
1.92456	0.00000	3477.27200
1.92838	0.00000	3476.04300
1.93221	0.00000	3476.04300
1.93603	0.00000	3476.04300
1.93985	0.00000	3476.04300
1.94367	0.00000	3477.53300
1.94750	0.00000	3477.53300
1.95133	0.00000	3477.53300
1.95516	0.00000	3477.53300
1.95898	0.00000	3477.53300
1.96280	0.00000	3482.90600
1.96662	0.00000	3482.90600
1.97045	0.00000	3482.90600
1.97428	0.00000	3482.90600
1.97810	0.00000	3473.94800
1.98193	0.00000	3473.94800
1.98576	0.00000	3473.94800
1.98958	0.00000	3473.94800
1.99341	0.00000	3473.94800
1.99724	0.00000	3475.78300
2.00106	0.00000	3475.78300
2.00488	0.00000	3475.78300
2.00871	0.00000	3475.78300
2.01253	0.00000	3481.11800
2.01637	0.00000	3481.11800
2.02019	0.00000	3481.11800
2.02401	0.00000	3481.11800
2.02783	0.00000	3481.11800
2.03166	0.00000	3482.65200
2.03548	0.00000	3482.65200
2.03930	0.00000	3482.65200
2.04312	0.00000	3482.65200
2.04695	0.00000	3480.86100
2.05079	0.00000	3480.86100
2.05462	0.00000	3480.86100
2.05844	0.00000	3480.86100
2.06227	0.00000	3480.86100
2.06609	0.00000	3475.78300
2.06991	0.00000	3475.78300
2.07374	0.00000	3475.78300
2.07757	0.00000	3475.78300
2.08140	0.00000	3484.44900
2.08523	0.00000	3484.44900
2.08907	0.00000	3484.44900
2.09289	0.00000	3484.44900
2.09671	0.00000	3484.44900
2.10053	0.00000	3479.34400
2.10435	0.00000	3479.34400
2.10818	0.00000	3479.34400
2.11200	0.00000	3479.34400
2.11582	0.00000	3481.11800
2.11965	0.00000	3481.11800
2.12347	0.00000	3481.11800
2.12730	0.00000	3481.11800
2.13112	0.00000	3481.11800
2.13494	0.00000	3486.21600
2.13877	0.00000	3486.21600
2.14259	0.00000	3486.21600
2.14641	0.00000	3486.21600
2.15024	0.00000	3481.11800
2.15406	0.00000	3481.11800
2.15788	0.00000	3481.11800
2.16170	0.00000	3481.11800
2.16553	0.00000	3481.11800
2.16936	0.00000	3479.34400
2.17318	0.00000	3479.34400
2.17700	0.00000	3479.34400
2.18083	0.00000	3479.34400
2.18466	0.00000	3477.53300
2.18848	0.00000	3477.53300
2.19231	0.00000	3477.53300
2.19612	0.00000	3477.53300
2.19995	0.00000	3477.53300
2.20378	0.00000	3479.34400
2.20760	0.00000	3479.34400
2.21142	0.00000	3479.34400
2.21524	0.00000	3479.34400
2.21907	0.00000	3480.86100
2.22291	0.00000	3480.86100
2.22673	0.00000	3480.86100
2.23056	0.00000	3480.86100
2.23438	0.00000	3480.86100
2.23819	0.00000	3475.52300
2.24201	0.00000	3475.52300
2.24583	0.00000	3475.52300
2.24965	0.00000	3475.52300
2.25347	0.00000	3481.11800
2.25731	0.00000	3481.11800
2.26113	0.00000	3481.11800
2.26496	0.00000	3481.11800
2.26878	0.00000	3481.11800
2.27261	0.00000	3475.52300
2.27643	0.00000	3475.52300
2.28026	0.00000	3475.52300
2.28408	0.00000	3475.52300
2.28791	0.00000	3477.53300
2.29174	0.00000	3477.53300
2.29557	0.00000	3477.53300
2.29938	0.00000	3477.53300
2.30320	0.00000	3477.53300
2.30702	0.00000	3478.82900
2.31085	0.00000	3478.82900
2.31468	0.00000	3478.82900
2.31850	0.00000	3478.82900
2.32235	0.00000	3477.27200
2.32621	0.00000	3477.27200
2.33004	0.00000	3477.27200
2.33386	0.00000	3477.27200
2.33769	0.00000	3477.27200
2.34151	0.00000	3475.52300
2.34534	0.00000	3475.52300
2.34917	0.00000	3475.52300
2.35299	0.00000	3475.52300
2.35682	0.00000	3477.53300
2.36065	0.00000	3477.53300
2.36447	0.00000	3477.53300
2.36830	0.00000	3477.53300
2.37212	0.00000	3477.53300
2.37595	0.00000	3471.95800
2.37978	0.00000	3471.95800
2.38363	0.00000	3471.95800
2.38747	0.00000	3471.95800
2.39130	0.00000	3477.27200
2.39514	0.00000	3477.27200
2.39897	0.00000	3477.27200
2.40280	0.00000	3477.27200
2.40662	0.00000	3477.27200
2.41045	0.00000	3472.22200
2.41427	0.00000	3472.22200
2.41809	0.00000	3472.22200
2.42192	0.00000	3472.22200
2.42574	0.00000	3480.60300
2.42956	0.00000	3480.60300
2.43339	0.00000	3480.60300
2.43722	0.00000	3480.60300
2.44104	0.00000	3480.60300
2.44486	0.00000	3475.78300
2.44869	0.00000	3475.78300
2.45251	0.00000	3475.78300
2.45633	0.00000	3475.78300
2.46012	0.00000	3473.68400
2.46395	0.00000	3473.68400
2.46777	0.00000	3473.68400
2.47159	0.00000	3473.68400
2.47541	0.00000	3473.68400
2.47923	0.00000	3475.78300
2.48305	0.00000	3475.78300
2.48688	0.00000	3475.78300
2.49069	0.00000	3475.78300
2.49451	0.00000	3473.94800
2.49834	0.00000	3473.94800
2.50216	0.00000	3473.94800
2.50599	0.00000	3473.94800
2.50981	0.00000	3473.94800
2.51364	0.00000	3475.78300
2.51747	0.00000	3475.78300
2.52130	0.00000	3475.78300
2.52513	0.00000	3475.78300
2.52895	0.00000	3473.94800
2.53277	0.00000	3473.94800
2.53659	0.00000	3473.94800
2.54041	0.00000	3473.94800
2.54423	0.00000	3473.94800
2.54805	0.00000	3475.52300
2.55187	0.00000	3475.52300
2.55569	0.00000	3475.52300
2.55951	0.00000	3475.52300
2.56333	0.00000	3477.01100
2.56716	0.00000	3477.01100
2.57098	0.00000	3477.01100
2.57482	0.00000	3477.01100
2.57865	0.00000	3477.01100
2.58246	0.00000	3471.69300
2.58629	0.00000	3471.69300
2.59012	0.00000	3471.69300
2.59394	0.00000	3471.69300
2.59776	0.00000	3473.41900
2.60160	0.00000	3473.41900
2.60543	0.00000	3473.41900
2.60925	0.00000	3473.41900
2.61307	0.00000	3473.41900
2.61689	0.00000	3471.95800
2.62071	0.00000	3471.95800
2.62454	0.00000	3471.95800
2.62836	0.00000	3471.95800
2.63218	0.00000	3473.94800
2.63601	0.00000	3473.94800
2.63984	0.00000	3473.94800
2.64367	0.00000	3473.94800
2.64750	0.00000	3473.94800
2.65132	0.00000	3471.69300
2.65514	0.00000	3471.69300
2.65897	0.00000	3471.69300
2.66280	0.00000	3471.69300
2.66662	0.00000	3477.01100
2.67045	0.00000	3477.01100
2.67428	0.00000	3477.01100
2.67810	0.00000	3477.01100
2.68193	0.00000	3477.01100
2.68575	0.00000	3478.82900
2.68958	0.00000	3478.82900
2.69340	0.00000	3478.82900
2.69723	0.00000	3478.82900
2.70105	0.00000	3470.09500
2.70488	0.00000	3470.09500
2.70870	0.00000	3470.09500
2.71253	0.00000	3470.09500
2.71635	0.00000	3470.09500
2.72018	0.00000	3471.95800
2.72400	0.00000	3471.95800
2.72782	0.00000	3471.95800
2.73164	0.00000	3471.95800
2.73546	0.00000	3473.41900
2.73928	0.00000	3473.41900
2.74310	0.00000	3473.41900
2.74691	0.00000	3473.41900
2.75073	0.00000	3473.41900
2.75456	0.00000	3471.69300
2.75837	0.00000	3471.69300
2.76221	0.00000	3471.69300
2.76603	0.00000	3471.69300
2.76986	0.00000	3473.41900
2.77368	0.00000	3473.41900
2.77750	0.00000	3473.41900
2.78133	0.00000	3473.41900
2.78515	0.00000	3473.41900
2.78897	0.00000	3475.52300
2.79279	0.00000	3475.52300
2.79661	0.00000	3475.52300
2.80043	0.00000	3475.52300
2.80425	0.00000	3470.09500
2.80807	0.00000	3470.09500
2.81191	0.00000	3470.09500
2.81574	0.00000	3470.09500
2.81957	0.00000	3470.09500
2.82339	0.00000	3471.69300
2.82721	0.00000	3471.69300
2.83104	0.00000	3471.69300
2.83486	0.00000	3471.69300
2.83868	0.00000	3473.41900
2.84251	0.00000	3473.41900
2.84633	0.00000	3473.41900
2.85016	0.00000	3473.41900
2.85400	0.00000	3473.41900
2.85782	0.00000	3468.39300
2.86164	0.00000	3468.39300
2.86546	0.00000	3468.39300
2.86928	0.00000	3468.39300
2.87310	0.00000	3473.41900
2.87693	0.00000	3473.41900
2.88075	0.00000	3473.41900
2.88458	0.00000	3473.41900
2.88840	0.00000	3473.41900
2.89223	0.00000	3471.42800
2.89605	0.00000	3471.42800
2.89987	0.00000	3471.42800
2.90370	0.00000	3471.42800
2.90752	0.00000	3462.36800
2.91134	0.00000	3462.36800
2.91516	0.00000	3462.36800
2.91899	0.00000	3462.36800
2.92281	0.00000	3462.36800
2.92663	0.00000	3468.12500
2.93046	0.00000	3468.12500
2.93429	0.00000	3468.12500
2.93812	0.00000	3468.12500
2.94194	0.00000	3466.50700
2.94577	0.00000	3466.50700
2.94959	0.00000	3466.50700
2.95341	0.00000	3466.50700
2.95724	0.00000	3466.50700
2.96107	0.00000	3468.39300
2.96489	0.00000	3468.39300
2.96872	0.00000	3468.39300
2.97254	0.00000	3468.39300
2.97637	0.00000	3469.82700
2.98020	0.00000	3469.82700
2.98402	0.00000	3469.82700
2.98785	0.00000	3469.82700
2.99167	0.00000	3469.82700
2.99549	0.00000	3468.39300
2.99931	0.00000	3468.39300
3.00314	0.00000	3468.39300
3.00697	0.00000	3468.39300
3.01079	0.00000	3462.64300
3.01461	0.00000	3462.64300
3.01843	0.00000	3462.64300
3.02226	0.00000	3462.64300
3.02608	0.00000	3462.64300
3.02990	0.00000	3464.55700
3.03372	0.00000	3464.55700
3.03755	0.00000	3464.55700
3.04138	0.00000	3464.55700
3.04520	0.00000	3469.82700
3.04903	0.00000	3469.82700
3.05285	0.00000	3469.82700
3.05667	0.00000	3469.82700
3.06050	0.00000	3469.82700
3.06433	0.00000	3460.71400
3.06812	0.00000	3460.71400
3.07194	0.00000	3460.71400
3.07578	0.00000	3460.71400
3.07960	0.00000	3469.82700
3.08342	0.00000	3469.82700
3.08725	0.00000	3469.82700
3.09107	0.00000	3469.82700
3.09489	0.00000	3469.82700
3.09872	0.00000	3468.39300
3.10254	0.00000	3468.39300
3.10636	0.00000	3468.39300
3.11017	0.00000	3468.39300
3.11398	0.00000	3469.82700
3.11780	0.00000	3469.82700
3.12160	0.00000	3469.82700
3.12541	0.00000	3469.82700
3.12922	0.00000	3469.82700
3.13303	0.00000	3464.82800
3.13685	0.00000	3464.82800
3.14066	0.00000	3464.82800
3.14447	0.00000	3464.82800
3.14828	0.00000	3473.41900
3.15209	0.00000	3473.41900
3.15592	0.00000	3473.41900
3.15974	0.00000	3473.41900
3.16355	0.00000	3473.41900
3.16736	0.00000	3468.39300
3.17117	0.00000	3468.39300
3.17499	0.00000	3468.39300
3.17880	0.00000	3468.39300
3.18261	0.00000	3470.09500
3.18642	0.00000	3470.09500
3.19023	0.00000	3470.09500
3.19404	0.00000	3470.09500
3.19785	0.00000	3470.09500
3.20166	0.00000	3468.12500
3.20548	0.00000	3468.12500
3.20930	0.00000	3468.12500
3.21313	0.00000	3468.12500
3.21696	0.00000	3469.82700
3.22078	0.00000	3469.82700
3.22461	0.00000	3469.82700
3.22844	0.00000	3469.82700
3.23226	0.00000	3469.82700
3.23609	0.00000	3475.26100
3.23991	0.00000	3475.26100
3.24373	0.00000	3475.26100
3.24755	0.00000	3475.26100
3.25137	0.00000	3473.68400
3.25519	0.00000	3473.68400
3.25901	0.00000	3473.68400
3.26283	0.00000	3473.68400
3.26665	0.00000	3473.68400
3.27048	0.00000	3464.82800
3.27430	0.00000	3464.82800
3.27813	0.00000	3464.82800
3.28196	0.00000	3464.82800
3.28579	0.00000	3473.68400
3.28961	0.00000	3473.68400
3.29345	0.00000	3473.68400
3.29727	0.00000	3473.68400
3.30109	0.00000	3473.68400
3.30492	0.00000	3472.22200
3.30874	0.00000	3472.22200
3.31256	0.00000	3472.22200
3.31639	0.00000	3472.22200
3.32022	0.00000	3473.68400
3.32405	0.00000	3473.68400
3.32786	0.00000	3473.68400
3.33169	0.00000	3473.68400
3.33552	0.00000	3473.68400
3.33934	0.00000	3475.78300
3.34316	0.00000	3475.78300
3.34698	0.00000	3475.78300
3.35080	0.00000	3475.78300
3.35462	0.00000	3473.94800
3.35844	0.00000	3473.94800
3.36226	0.00000	3473.94800
3.36609	0.00000	3473.94800
3.36991	0.00000	3473.94800
3.37373	0.00000	3479.08700
3.37755	0.00000	3479.08700
3.38138	0.00000	3479.08700
3.38521	0.00000	3479.08700
3.38902	0.00000	3473.68400
3.39284	0.00000	3473.68400
3.39666	0.00000	3473.68400
3.40049	0.00000	3473.68400
3.40432	0.00000	3473.68400
3.40812	0.00000	3475.52300
3.41195	0.00000	3475.52300
3.41577	0.00000	3475.52300
3.41959	0.00000	3475.52300
3.42343	0.00000	3474.21200
3.42725	0.00000	3474.21200
3.43107	0.00000	3474.21200
3.43490	0.00000	3474.21200
3.43872	0.00000	3474.21200
3.44254	0.00000	3479.34400
3.44636	0.00000	3479.34400
3.45018	0.00000	3479.34400
3.45401	0.00000	3479.34400
3.45783	0.00000	3480.86100
3.46167	0.00000	3480.86100
3.46550	0.00000	3480.86100
3.46931	0.00000	3480.86100
3.47313	0.00000	3480.86100
3.47696	0.00000	3479.34400
3.48078	0.00000	3479.34400
3.48460	0.00000	3479.34400
3.48842	0.00000	3479.34400
3.49225	0.00000	3477.53300
3.49607	0.00000	3477.53300
3.49990	0.00000	3477.53300
3.50372	0.00000	3477.53300
3.50753	0.00000	3477.53300
3.51136	0.00000	3475.78300
3.51518	0.00000	3475.78300
3.51901	0.00000	3475.78300
3.52285	0.00000	3475.78300
3.52673	0.00000	3473.94800
3.53057	0.00000	3473.94800
3.53441	0.00000	3473.94800
3.53824	0.00000	3473.94800
3.54206	0.00000	3473.94800
3.54588	0.00000	3486.21600
3.54970	0.00000	3486.21600
3.55354	0.00000	3486.21600
3.55737	0.00000	3486.21600
3.56120	0.00000	3477.27200
3.56503	0.00000	3477.27200
3.56884	0.00000	3477.27200
3.57267	0.00000	3477.27200
3.57649	0.00000	3477.27200
3.58031	0.00000	3475.52300
3.58412	0.00000	3475.52300
3.58796	0.00000	3475.52300
3.59178	0.00000	3475.52300
3.59560	0.00000	3481.37500
3.59943	0.00000	3481.37500
3.60325	0.00000	3481.37500
3.60707	0.00000	3481.37500
3.61089	0.00000	3481.37500
3.61472	0.00000	3476.04300
3.61854	0.00000	3476.04300
3.62237	0.00000	3476.04300
3.62619	0.00000	3476.04300
3.63002	0.00000	3481.11800
3.63384	0.00000	3481.11800
3.63767	0.00000	3481.11800
3.64149	0.00000	3481.11800
3.64532	0.00000	3481.11800
3.64914	0.00000	3479.60100
3.65296	0.00000	3479.60100
3.65678	0.00000	3479.60100
3.66060	0.00000	3479.60100
3.66443	0.00000	3484.70300
3.66825	0.00000	3484.70300
3.67209	0.00000	3484.70300
3.67591	0.00000	3484.70300
3.67974	0.00000	3484.70300
3.68356	0.00000	3479.08700
3.68738	0.00000	3479.08700
3.69120	0.00000	3479.08700
3.69502	0.00000	3479.08700
3.69884	0.00000	3484.70300
3.70267	0.00000	3484.70300
3.70650	0.00000	3484.70300
3.71032	0.00000	3484.70300
3.71415	0.00000	3484.70300
3.71797	0.00000	3490.27500
3.72180	0.00000	3490.27500
3.72563	0.00000	3490.27500
3.72946	0.00000	3490.27500
3.73328	0.00000	3481.63100
3.73711	0.00000	3481.63100
3.74094	0.00000	3481.63100
3.74476	0.00000	3481.63100
3.74859	0.00000	3481.63100
3.75242	0.00000	3486.71700
3.75624	0.00000	3486.71700
3.76007	0.00000	3486.71700
3.76390	0.00000	3486.71700
3.76771	0.00000	3481.63100
3.77154	0.00000	3481.63100
3.77536	0.00000	3481.63100
3.77919	0.00000	3481.63100
3.78301	0.00000	3481.63100
3.78684	0.00000	3490.27500
3.79066	0.00000	3490.27500
3.79449	0.00000	3490.27500
3.79832	0.00000	3490.27500
3.80214	0.00000	3488.78800
3.80597	0.00000	3488.78800
3.80980	0.00000	3488.78800
3.81363	0.00000	3488.78800
3.81745	0.00000	3488.78800
3.82127	0.00000	3483.15900
3.82511	0.00000	3483.15900
3.82893	0.00000	3483.15900
3.83275	0.00000	3483.15900
3.83658	0.00000	3488.53800
3.84041	0.00000	3488.53800
3.84423	0.00000	3488.53800
3.84806	0.00000	3488.53800
3.85188	0.00000	3488.53800
3.85571	0.00000	3490.27500
3.85954	0.00000	3490.27500
3.86336	0.00000	3490.27500
3.86720	0.00000	3490.27500
3.87102	0.00000	3485.21000
3.87485	0.00000	3485.21000
3.87868	0.00000	3485.21000
3.88250	0.00000	3485.21000
3.88632	0.00000	3485.21000
3.89015	0.00000	3486.71700
3.89398	0.00000	3486.71700
3.89781	0.00000	3486.71700
3.90165	0.00000	3486.71700
3.90547	0.00000	3488.53800
3.90929	0.00000	3488.53800
3.91312	0.00000	3488.53800
3.91695	0.00000	3488.53800
3.92077	0.00000	3488.53800
3.92460	0.00000	3483.41200
3.92843	0.00000	3483.41200
3.93225	0.00000	3483.41200
3.93608	0.00000	3483.41200
3.93991	0.00000	3488.53800
3.94373	0.00000	3488.53800
3.94756	0.00000	3488.53800
3.95138	0.00000	3488.53800
3.95520	0.00000	3488.53800
3.95902	0.00000	3486.71700
3.96285	0.00000	3486.71700
3.96667	0.00000	3486.71700
3.97049	0.00000	3486.71700
3.97432	0.00000	3488.53800
3.97815	0.00000	3488.53800
3.98198	0.00000	3488.53800
3.98581	0.00000	3488.53800
3.98963	0.00000	3488.53800
3.99346	0.00000	3483.41200
3.99729	0.00000	3483.41200
4.00111	0.00000	3483.41200
4.00493	0.00000	3483.41200
4.00875	0.00000	3488.53800
4.01259	0.00000	3488.53800
4.01642	0.00000	3488.53800
4.02025	0.00000	3488.53800
4.02410	0.00000	3488.53800
4.02795	0.00000	3490.27500
4.03178	0.00000	3490.27500
4.03561	0.00000	3490.27500
4.03945	0.00000	3490.27500
4.04327	0.00000	3481.63100
4.04710	0.00000	3481.63100
4.05092	0.00000	3481.63100
4.05475	0.00000	3481.63100
4.05857	0.00000	3481.63100
4.06240	0.00000	3483.15900
4.06623	0.00000	3483.15900
4.07005	0.00000	3483.15900
4.07388	0.00000	3483.15900
4.07771	0.00000	3484.95700
4.08153	0.00000	3484.95700
4.08535	0.00000	3484.95700
4.08918	0.00000	3484.95700
4.09301	0.00000	3484.95700
4.09684	0.00000	3479.85700
4.10067	0.00000	3479.85700
4.10449	0.00000	3479.85700
4.10832	0.00000	3479.85700
4.11212	0.00000	3488.53800
4.11597	0.00000	3488.53800
4.11979	0.00000	3488.53800
4.12361	0.00000	3488.53800
4.12742	0.00000	3488.53800
4.13125	0.00000	3479.60100
4.13507	0.00000	3479.60100
4.13890	0.00000	3479.60100
4.14272	0.00000	3479.60100
4.14655	0.00000	3481.37500
4.15037	0.00000	3481.37500
4.15420	0.00000	3481.37500
4.15802	0.00000	3481.37500
4.16184	0.00000	3481.37500
4.16567	0.00000	3475.78300
4.16950	0.00000	3475.78300
4.17333	0.00000	3475.78300
4.17715	0.00000	3475.78300
4.18097	0.00000	3480.86100
4.18479	0.00000	3480.86100
4.18862	0.00000	3480.86100
4.19244	0.00000	3480.86100
4.19626	0.00000	3480.86100
4.20009	0.00000	3483.15900
4.20392	0.00000	3483.15900
4.20775	0.00000	3483.15900
4.21157	0.00000	3483.15900
4.21539	0.00000	3481.11800
4.21922	0.00000	3481.11800
4.22304	0.00000	3481.11800
4.22687	0.00000	3481.11800
4.23069	0.00000	3481.11800
4.23451	0.00000	3482.90600
4.23834	0.00000	3482.90600
4.24217	0.00000	3482.90600
4.24600	0.00000	3482.90600
4.24984	0.00000	3484.44900
4.25366	0.00000	3484.44900
4.25748	0.00000	3484.44900
4.26131	0.00000	3484.44900
4.26513	0.00000	3484.44900
4.26896	0.00000	3471.95800
4.27278	0.00000	3471.95800
4.27661	0.00000	3471.95800
4.28044	0.00000	3471.95800
4.28426	0.00000	3481.37500
4.28810	0.00000	3481.37500
4.29193	0.00000	3481.37500
4.29575	0.00000	3481.37500
4.29957	0.00000	3481.37500
4.30339	0.00000	3479.60100
4.30722	0.00000	3479.60100
4.31103	0.00000	3479.60100
4.31486	0.00000	3479.60100
4.31868	0.00000	3481.11800
4.32251	0.00000	3481.11800
4.32633	0.00000	3481.11800
4.33016	0.00000	3481.11800
4.33399	0.00000	3481.11800
4.33781	0.00000	3482.90600
4.34163	0.00000	3482.90600
4.34546	0.00000	3482.90600
4.34928	0.00000	3482.90600
4.35310	0.00000	3477.79300
4.35694	0.00000	3477.79300
4.36076	0.00000	3477.79300
4.36459	0.00000	3477.79300
4.36842	0.00000	3477.79300
4.37224	0.00000	3479.34400
4.37607	0.00000	3479.34400
4.37990	0.00000	3479.34400
4.38372	0.00000	3479.34400
4.38754	0.00000	3481.11800
4.39136	0.00000	3481.11800
4.39519	0.00000	3481.11800
4.39901	0.00000	3481.11800
4.40284	0.00000	3481.11800
4.40666	0.00000	3482.90600
4.41049	0.00000	3482.90600
4.41432	0.00000	3482.90600
4.41815	0.00000	3482.90600
4.42197	0.00000	3477.27200
4.42579	0.00000	3477.27200
4.42961	0.00000	3477.27200
4.43343	0.00000	3477.27200
4.43725	0.00000	3477.27200
4.44108	0.00000	3482.90600
4.44490	0.00000	3482.90600
4.44872	0.00000	3482.90600
4.45255	0.00000	3482.90600
4.45637	0.00000	3481.11800
4.46019	0.00000	3481.11800
4.46401	0.00000	3481.11800
4.46784	0.00000	3481.11800
4.47166	0.00000	3481.11800
4.47549	0.00000	3482.90600
4.47931	0.00000	3482.90600
4.48313	0.00000	3482.90600
4.48695	0.00000	3482.90600
4.49077	0.00000	3477.53300
4.49460	0.00000	3477.53300
4.49843	0.00000	3477.53300
4.50225	0.00000	3477.53300
4.50607	0.00000	3477.53300
4.50990	0.00000	3479.34400
4.51373	0.00000	3479.34400
4.51754	0.00000	3479.34400
4.52137	0.00000	3479.34400
4.52519	0.00000	3473.68400
4.52902	0.00000	3473.68400
4.53285	0.00000	3473.68400
4.53667	0.00000	3473.68400
4.54050	0.00000	3473.68400
4.54432	0.00000	3475.78300
4.54812	0.00000	3475.78300
4.55195	0.00000	3475.78300
4.55577	0.00000	3475.78300
4.55958	0.00000	3477.53300
4.56342	0.00000	3477.53300
4.56724	0.00000	3477.53300
4.57106	0.00000	3477.53300
4.57488	0.00000	3477.53300
4.57870	0.00000	3479.08700
4.58253	0.00000	3479.08700
4.58637	0.00000	3479.08700
4.59020	0.00000	3479.08700
4.59402	0.00000	3477.53300
4.59784	0.00000	3477.53300
4.60166	0.00000	3477.53300
4.60549	0.00000	3477.53300
4.60931	0.00000	3477.53300
4.61313	0.00000	3476.04300
4.61696	0.00000	3476.04300
4.62079	0.00000	3476.04300
4.62462	0.00000	3476.04300
4.62844	0.00000	3477.27200
4.63226	0.00000	3477.27200
4.63609	0.00000	3477.27200
4.63992	0.00000	3477.27200
4.64374	0.00000	3477.27200
4.64756	0.00000	3482.90600
4.65138	0.00000	3482.90600
4.65520	0.00000	3482.90600
4.65903	0.00000	3482.90600
4.66286	0.00000	3477.79300
4.66669	0.00000	3477.79300
4.67051	0.00000	3477.79300
4.67434	0.00000	3477.79300
4.67817	0.00000	3477.79300
4.68200	0.00000	3475.78300
4.68582	0.00000	3475.78300
4.68965	0.00000	3475.78300
4.69346	0.00000	3475.78300
4.69729	0.00000	3477.53300
4.70111	0.00000	3477.53300
4.70493	0.00000	3477.53300
4.70876	0.00000	3477.53300
4.71257	0.00000	3477.53300
4.71639	0.00000	3482.65200
4.72022	0.00000	3482.65200
4.72404	0.00000	3482.65200
4.72786	0.00000	3482.65200
4.73169	0.00000	3481.11800
4.73553	0.00000	3481.11800
4.73935	0.00000	3481.11800
4.74318	0.00000	3481.11800
4.74700	0.00000	3481.11800
4.75082	0.00000	3479.60100
4.75465	0.00000	3479.60100
4.75848	0.00000	3479.60100
4.76230	0.00000	3479.60100
4.76612	0.00000	3481.37500
4.76995	0.00000	3481.37500
4.77377	0.00000	3481.37500
4.77760	0.00000	3481.37500
4.78142	0.00000	3481.37500
4.78524	0.00000	3475.78300
4.78906	0.00000	3475.78300
4.79288	0.00000	3475.78300
4.79672	0.00000	3475.78300
4.80054	0.00000	3480.86100
4.80437	0.00000	3480.86100
4.80819	0.00000	3480.86100
4.81201	0.00000	3480.86100
4.81584	0.00000	3480.86100
4.81966	0.00000	3482.90600
4.82349	0.00000	3482.90600
4.82731	0.00000	3482.90600
4.83113	0.00000	3482.90600
4.83496	0.00000	3477.79300
4.83879	0.00000	3477.79300
4.84261	0.00000	3477.79300
4.84643	0.00000	3477.79300
4.85026	0.00000	3477.79300
4.85408	0.00000	3479.60100
4.85791	0.00000	3479.60100
4.86174	0.00000	3479.60100
4.86557	0.00000	3479.60100
4.86939	0.00000	3481.11800
4.87322	0.00000	3481.11800
4.87704	0.00000	3481.11800
4.88087	0.00000	3481.11800
4.88469	0.00000	3481.11800
4.88852	0.00000	3475.78300
4.89235	0.00000	3475.78300
4.89612	0.00000	3475.78300
4.89995	0.00000	3475.78300
4.90377	0.00000	3480.86100
4.90761	0.00000	3480.86100
4.91143	0.00000	3480.86100
4.91526	0.00000	3480.86100
4.91908	0.00000	3480.86100
4.92291	0.00000	3479.34400
4.92674	0.00000	3479.34400
4.93056	0.00000	3479.34400
4.93439	0.00000	3479.34400
4.93821	0.00000	3484.70300
4.94204	0.00000	3484.70300
4.94586	0.00000	3484.70300
4.94968	0.00000	3484.70300
4.95350	0.00000	3484.70300
4.95732	0.00000	3475.78300
4.96115	0.00000	3475.78300
4.96497	0.00000	3475.78300
4.96879	0.00000	3475.78300
4.97262	0.00000	3484.70300
4.97644	0.00000	3484.70300
4.98028	0.00000	3484.70300
4.98410	0.00000	3484.70300
4.98793	0.00000	3484.70300
4.99175	0.00000	3478.82900
4.99558	0.00000	3478.82900
4.99940	0.00000	3478.82900
5.00370	0.00000	3478.82900
5.00756	0.00000	3481.11800
5.01141	0.00000	3481.11800
5.01524	0.00000	3481.11800
5.01910	0.00000	3481.11800
5.02294	0.00000	3481.11800
5.02677	0.00000	3483.15900
5.03061	0.00000	3483.15900
5.03450	0.00000	3483.15900
5.03835	0.00000	3483.15900
5.04219	0.00000	3580.98600
5.04602	0.00000	3580.98600
5.04986	0.00000	3580.98600
5.05369	0.00000	3580.98600
5.05752	0.00000	3580.98600
5.06136	0.00000	3726.11400
5.06518	0.00000	3726.11400
5.06902	0.00000	3726.11400
5.07284	0.00000	3726.11400
5.07667	0.00000	3726.11400
5.08050	0.00000	3840.08000
5.08433	0.00000	3840.08000
5.08812	0.00000	3840.08000
5.09195	0.00000	3840.08000
5.09579	0.00000	3840.08000
5.09962	0.00000	3927.01000
5.10345	0.00000	3927.01000
5.10728	0.00000	3927.01000
5.11111	0.00000	3927.01000
5.11494	0.00000	3927.01000
5.11877	0.00000	4011.85300
5.12262	0.00000	4011.85300
5.12645	0.00000	4011.85300
5.13028	0.00000	4011.85300
5.13411	0.00000	4011.85300
5.13794	0.00000	4069.42000
5.14178	0.00000	4069.42000
5.14561	0.00000	4069.42000
5.14946	0.00000	4069.42000
5.15329	0.00000	4069.42000
5.15713	0.00000	4119.31800
5.16096	0.00000	4119.31800
5.16480	0.00000	4119.31800
5.16862	0.00000	4119.31800
5.17246	0.00000	4119.31800
5.17629	0.00000	4169.44900
5.18012	0.00000	4169.44900
5.18396	0.00000	4169.44900
5.18779	0.00000	4169.44900
5.19162	0.00000	4169.44900
5.19547	0.00000	4212.92500
5.19930	0.00000	4212.92500
5.20314	0.00000	4212.92500
5.20698	0.00000	4212.92500
5.21081	0.00000	4212.92500
5.21465	0.00000	4240.74000
5.21849	0.00000	4240.74000
5.22232	0.00000	4240.74000
5.22616	0.00000	4240.74000
5.23000	0.00000	4240.74000
5.23383	0.00000	4268.61700
5.23768	0.00000	4268.61700
5.24152	0.00000	4268.61700
5.24535	0.00000	4268.61700
5.24919	0.00000	4268.61700
5.25302	0.00000	4268.61700
5.25685	0.00000	4290.04800
5.26069	0.00000	4290.04800
5.26452	0.00000	4290.04800
5.26835	0.00000	4290.04800
5.27218	0.00000	4290.04800
5.27600	0.00000	4306.11800
5.27983	0.00000	4306.11800
5.28365	0.00000	4306.11800
5.28750	0.00000	4306.11800
5.29132	0.00000	4306.11800
5.29515	0.00000	4326.45600
5.29898	0.00000	4326.45600
5.30282	0.00000	4326.45600
5.30667	0.00000	4326.45600
5.31051	0.00000	4326.45600
5.31435	0.00000	4345.28600
5.31818	0.00000	4345.28600
5.32201	0.00000	4345.28600
5.32585	0.00000	4345.28600
5.32968	0.00000	4345.28600
5.33352	0.00000	4345.28600
5.33735	0.00000	4352.40900
5.34118	0.00000	4352.40900
5.34501	0.00000	4352.40900
5.34884	0.00000	4352.40900
5.35266	0.00000	4352.40900
5.35650	0.00000	4360.95500
5.36032	0.00000	4360.95500
5.36412	0.00000	4360.95500
5.36796	0.00000	4360.95500
5.37178	0.00000	4360.95500
5.37562	0.00000	4368.99000
5.37944	0.00000	4368.99000
5.38329	0.00000	4368.99000
5.38711	0.00000	4368.99000
5.39094	0.00000	4368.99000
5.39477	0.00000	4368.99000
5.39861	0.00000	4371.51300
5.40244	0.00000	4371.51300
5.40627	0.00000	4371.51300
5.41010	0.00000	4371.51300
5.41393	0.00000	4371.51300
5.41775	0.00000	4378.99300
5.42158	0.00000	4378.99300
5.42541	0.00000	4378.99300
5.42924	0.00000	4378.99300
5.43307	0.00000	4378.99300
5.43691	0.00000	4386.96100
5.44073	0.00000	4386.96100
5.44456	0.00000	4386.96100
5.44839	0.00000	4386.96100
5.45222	0.00000	4386.96100
5.45605	0.00000	4386.96100
5.45987	0.00000	4391.40800
5.46370	0.00000	4391.40800
5.46753	0.00000	4391.40800
5.47136	0.00000	4391.40800
5.47519	0.00000	4391.40800
5.47902	0.00000	4395.93300
5.48285	0.00000	4395.93300
5.48668	0.00000	4395.93300
5.49051	0.00000	4395.93300
5.49435	0.00000	4395.93300
5.49818	0.00000	4395.93300
5.50200	0.00000	4389.88100
5.50583	0.00000	4389.88100
5.50967	0.00000	4389.88100
5.51349	0.00000	4389.88100
5.51732	0.00000	4389.88100
5.52116	0.00000	4403.86100
5.52498	0.00000	4403.86100
5.52881	0.00000	4403.86100
5.53263	0.00000	4403.86100
5.53647	0.00000	4403.86100
5.54030	0.00000	4397.89000
5.54412	0.00000	4397.89000
5.54795	0.00000	4397.89000
5.55178	0.00000	4397.89000
5.55561	0.00000	4397.89000
5.55944	0.00000	4397.89000
5.56327	0.00000	4399.20900
5.56710	0.00000	4399.20900
5.57093	0.00000	4399.20900
5.57477	0.00000	4399.20900
5.57859	0.00000	4399.20900
5.58242	0.00000	4406.32400
5.58625	0.00000	4406.32400
5.59008	0.00000	4406.32400
5.59391	0.00000	4406.32400
5.59774	0.00000	4406.32400
5.60156	0.00000	4408.26000
5.60540	0.00000	4408.26000
5.60922	0.00000	4408.26000
5.61306	0.00000	4408.26000
5.61689	0.00000	4408.26000
5.62072	0.00000	4408.26000
5.62455	0.00000	4402.69000
5.62838	0.00000	4402.69000
5.63221	0.00000	4402.69000
5.63604	0.00000	4402.69000
5.63987	0.00000	4402.69000
5.64370	0.00000	4405.80200
5.64752	0.00000	4405.80200
5.65135	0.00000	4405.80200
5.65518	0.00000	4405.80200
5.65901	0.00000	4405.80200
5.66284	0.00000	4405.80200
5.66667	0.00000	4411.59000
5.67050	0.00000	4411.59000
5.67433	0.00000	4411.59000
5.67816	0.00000	4411.59000
5.68199	0.00000	4411.59000
5.68581	0.00000	4405.80200
5.68964	0.00000	4405.80200
5.69346	0.00000	4405.80200
5.69730	0.00000	4405.80200
5.70113	0.00000	4405.80200
5.70495	0.00000	4407.73800
5.70880	0.00000	4407.73800
5.71263	0.00000	4407.73800
5.71645	0.00000	4407.73800
5.72028	0.00000	4407.73800
5.72410	0.00000	4407.73800
5.72793	0.00000	4410.54500
5.73177	0.00000	4410.54500
5.73560	0.00000	4410.54500
5.73943	0.00000	4410.54500
5.74326	0.00000	4410.54500
5.74709	0.00000	4417.19600
5.75092	0.00000	4417.19600
5.75474	0.00000	4417.19600
5.75858	0.00000	4417.19600
5.76240	0.00000	4417.19600
5.76624	0.00000	4408.78300
5.77007	0.00000	4408.78300
5.77390	0.00000	4408.78300
5.77773	0.00000	4408.78300
5.78156	0.00000	4408.78300
5.78538	0.00000	4408.78300
5.78921	0.00000	4409.14500
5.79304	0.00000	4409.14500
5.79687	0.00000	4409.14500
5.80069	0.00000	4409.14500
5.80452	0.00000	4409.14500
5.80835	0.00000	4411.23900
5.81218	0.00000	4411.23900
5.81601	0.00000	4411.23900
5.81984	0.00000	4411.23900
5.82366	0.00000	4411.23900
5.82749	0.00000	4411.23900
5.83132	0.00000	4418.90300
5.83515	0.00000	4418.90300
5.83898	0.00000	4418.90300
5.84281	0.00000	4418.90300
5.84664	0.00000	4418.90300
5.85047	0.00000	4414.21800
5.85429	0.00000	4414.21800
5.85813	0.00000	4414.21800
5.86195	0.00000	4414.21800
5.86578	0.00000	4414.21800
5.86961	0.00000	4413.69000
5.87345	0.00000	4413.69000
5.87727	0.00000	4413.69000
5.88110	0.00000	4413.69000
5.88493	0.00000	4413.69000
5.88877	0.00000	4413.69000
5.89259	0.00000	4410.54500
5.89642	0.00000	4410.54500
5.90026	0.00000	4410.54500
5.90409	0.00000	4410.54500
5.90792	0.00000	4410.54500
5.91174	0.00000	4410.71400
5.91556	0.00000	4410.71400
5.91939	0.00000	4410.71400
5.92321	0.00000	4410.71400
5.92705	0.00000	4410.71400
5.93087	0.00000	4410.71400
5.93471	0.00000	4412.11400
5.93854	0.00000	4412.11400
5.94237	0.00000	4412.11400
5.94619	0.00000	4412.11400
5.95003	0.00000	4412.11400
5.95387	0.00000	4413.69000
5.95770	0.00000	4413.69000
5.96153	0.00000	4413.69000
5.96536	0.00000	4413.69000
5.96919	0.00000	4413.69000
5.97303	0.00000	4411.23900
5.97687	0.00000	4411.23900
5.98070	0.00000	4411.23900
5.98452	0.00000	4411.23900
5.98835	0.00000	4411.23900
5.99218	0.00000	4411.23900
5.99601	0.00000	4410.02400
5.99984	0.00000	4410.02400
6.00367	0.00000	4410.02400
6.00749	0.00000	4410.02400
6.01132	0.00000	4410.02400
6.01515	0.00000	4411.23900
6.01898	0.00000	4411.23900
6.02281	0.00000	4411.23900
6.02665	0.00000	4411.23900
6.03048	0.00000	4411.23900
6.03431	0.00000	4414.21800
6.03814	0.00000	4414.21800
6.04197	0.00000	4414.21800
6.04581	0.00000	4414.21800
6.04963	0.00000	4414.21800
6.05346	0.00000	4414.21800
6.05729	0.00000	4413.16400
6.06113	0.00000	4413.16400
6.06496	0.00000	4413.16400
6.06879	0.00000	4413.16400
6.07262	0.00000	4413.16400
6.07645	0.00000	4408.26000
6.08028	0.00000	4408.26000
6.08412	0.00000	4408.26000
6.08796	0.00000	4408.26000
6.09179	0.00000	4408.26000
6.09562	0.00000	4408.26000
6.09945	0.00000	4408.62300
6.10329	0.00000	4408.62300
6.10711	0.00000	4408.62300
6.11094	0.00000	4408.62300
6.11476	0.00000	4408.62300
6.11859	0.00000	4413.69000
6.12242	0.00000	4413.69000
6.12626	0.00000	4413.69000
6.13008	0.00000	4413.69000
6.13391	0.00000	4413.69000
6.13774	0.00000	4410.71400
6.14160	0.00000	4410.71400
6.14543	0.00000	4410.71400
6.14927	0.00000	4410.71400
6.15310	0.00000	4410.71400
6.15695	0.00000	4410.71400
6.16078	0.00000	4412.46000
6.16461	0.00000	4412.46000
6.16844	0.00000	4412.46000
6.17227	0.00000	4412.46000
6.17610	0.00000	4412.46000
6.17994	0.00000	4410.71400
6.18376	0.00000	4410.71400
6.18759	0.00000	4410.71400
6.19142	0.00000	4410.71400
6.19525	0.00000	4410.71400
6.19908	0.00000	4412.29100
6.20292	0.00000	4412.29100
6.20674	0.00000	4412.29100
6.21057	0.00000	4412.29100
6.21440	0.00000	4412.29100
6.21823	0.00000	4412.29100
6.22205	0.00000	4410.19000
6.22588	0.00000	4410.19000
6.22970	0.00000	4410.19000
6.23354	0.00000	4410.19000
6.23737	0.00000	4410.19000
6.24120	0.00000	4414.74500
6.24503	0.00000	4414.74500
6.24886	0.00000	4414.74500
6.25268	0.00000	4414.74500
6.25651	0.00000	4414.74500
6.26035	0.00000	4414.74500
6.26417	0.00000	4410.02400
6.26800	0.00000	4410.02400
6.27182	0.00000	4410.02400
6.27565	0.00000	4410.02400
6.27948	0.00000	4410.02400
6.28330	0.00000	4407.73800
6.28714	0.00000	4407.73800
6.29097	0.00000	4407.73800
6.29480	0.00000	4407.73800
6.29863	0.00000	4407.73800
6.30247	0.00000	4408.78300
6.30631	0.00000	4408.78300
6.31014	0.00000	4408.78300
6.31397	0.00000	4408.78300
6.31780	0.00000	4408.78300
6.32165	0.00000	4408.78300
6.32550	0.00000	4409.50300
6.32931	0.00000	4409.50300
6.33315	0.00000	4409.50300
6.33699	0.00000	4409.50300
6.34083	0.00000	4409.50300
6.34467	0.00000	4410.71400
6.34851	0.00000	4410.71400
6.35234	0.00000	4410.71400
6.35618	0.00000	4410.71400
6.36000	0.00000	4410.71400
6.36383	0.00000	4411.23900
6.36765	0.00000	4411.23900
6.37149	0.00000	4411.23900
6.37532	0.00000	4411.23900
6.37916	0.00000	4411.23900
6.38303	0.00000	4411.23900
6.38688	0.00000	4411.23900
6.39073	0.00000	4411.23900
6.39456	0.00000	4411.23900
6.39840	0.00000	4411.23900
6.40223	0.00000	4411.23900
6.40607	0.00000	4409.30800
6.40990	0.00000	4409.30800
6.41375	0.00000	4409.30800
6.41759	0.00000	4409.30800
6.42143	0.00000	4409.30800
6.42526	0.00000	4409.30800
6.42910	0.00000	4407.58300
6.43293	0.00000	4407.58300
6.43677	0.00000	4407.58300
6.44061	0.00000	4407.58300
6.44445	0.00000	4407.58300
6.44828	0.00000	4408.78300
6.45212	0.00000	4408.78300
6.45596	0.00000	4408.78300
6.45979	0.00000	4408.78300
6.46363	0.00000	4408.78300
6.46746	0.00000	4408.78300
6.47129	0.00000	4408.78300
6.47513	0.00000	4408.78300
6.47896	0.00000	4408.78300
6.48280	0.00000	4408.78300
6.48663	0.00000	4408.78300
6.49047	0.00000	4407.06400
6.49430	0.00000	4407.06400
6.49813	0.00000	4407.06400
6.50197	0.00000	4407.06400
6.50581	0.00000	4407.06400
6.50965	0.00000	4405.80200
6.51348	0.00000	4405.80200
6.51731	0.00000	4405.80200
6.52115	0.00000	4405.80200
6.52498	0.00000	4405.80200
6.52881	0.00000	4411.23900
6.53264	0.00000	4411.23900
6.53647	0.00000	4411.23900
6.54030	0.00000	4411.23900
6.54412	0.00000	4411.23900
6.54795	0.00000	4411.23900
6.55179	0.00000	4410.71400
6.55562	0.00000	4410.71400
6.55946	0.00000	4410.71400
6.56329	0.00000	4410.71400
6.56712	0.00000	4410.71400
6.57094	0.00000	4408.78300
6.57478	0.00000	4408.78300
6.57861	0.00000	4408.78300
6.58245	0.00000	4408.78300
6.58628	0.00000	4408.78300
6.59012	0.00000	4408.78300
6.59396	0.00000	4399.72300
6.59779	0.00000	4399.72300
6.60162	0.00000	4399.72300
6.60544	0.00000	4399.72300
6.60927	0.00000	4399.72300
6.61311	0.00000	4411.23900
6.61694	0.00000	4411.23900
6.62077	0.00000	4411.23900
6.62460	0.00000	4411.23900
6.62844	0.00000	4411.23900
6.63226	0.00000	4411.76400
6.63610	0.00000	4411.76400
6.63994	0.00000	4411.76400
6.64377	0.00000	4411.76400
6.64759	0.00000	4411.76400
6.65142	0.00000	4411.76400
6.65524	0.00000	4410.54500
6.65908	0.00000	4410.54500
6.66291	0.00000	4410.54500
6.66674	0.00000	4410.54500
6.67058	0.00000	4410.54500
6.67441	0.00000	4405.28200
6.67824	0.00000	4405.28200
6.68208	0.00000	4405.28200
6.68591	0.00000	4405.28200
6.68973	0.00000	4405.28200
6.69356	0.00000	4408.78300
6.69739	0.00000	4408.78300
6.70122	0.00000	4408.78300
6.70505	0.00000	4408.78300
6.70889	0.00000	4408.78300
6.71271	0.00000	4408.78300
6.71654	0.00000	4407.73800
6.72037	0.00000	4407.73800
6.72420	0.00000	4407.73800
6.72803	0.00000	4407.73800
6.73186	0.00000	4407.73800
6.73569	0.00000	4411.76400
6.73952	0.00000	4411.76400
6.74336	0.00000	4411.76400
6.74719	0.00000	4411.76400
6.75103	0.00000	4411.76400
6.75485	0.00000	4411.76400
6.75869	0.00000	4399.72300
6.76252	0.00000	4399.72300
6.76636	0.00000	4399.72300
6.77018	0.00000	4399.72300
6.77402	0.00000	4399.72300
6.77785	0.00000	4403.34100
6.78168	0.00000	4403.34100
6.78551	0.00000	4403.34100
6.78931	0.00000	4403.34100
6.79314	0.00000	4403.34100
6.79697	0.00000	4405.28200
6.80081	0.00000	4405.28200
6.80464	0.00000	4405.28200
6.80846	0.00000	4405.28200
6.81229	0.00000	4405.28200
6.81612	0.00000	4405.28200
6.81996	0.00000	4412.46000
6.82379	0.00000	4412.46000
6.82762	0.00000	4412.46000
6.83145	0.00000	4412.46000
6.83527	0.00000	4412.46000
6.83910	0.00000	4411.23900
6.84293	0.00000	4411.23900
6.84676	0.00000	4411.23900
6.85059	0.00000	4411.23900
6.85442	0.00000	4411.23900
6.85825	0.00000	4414.21800
6.86207	0.00000	4414.21800
6.86590	0.00000	4414.21800
6.86973	0.00000	4414.21800
6.87356	0.00000	4414.21800
6.87739	0.00000	4414.21800
6.88122	0.00000	4412.63800
6.88506	0.00000	4412.63800
6.88890	0.00000	4412.63800
6.89272	0.00000	4412.63800
6.89655	0.00000	4412.63800
6.90038	0.00000	4406.32400
6.90421	0.00000	4406.32400
6.90804	0.00000	4406.32400
6.91187	0.00000	4406.32400
6.91570	0.00000	4406.32400
6.91953	0.00000	4406.32400
6.92336	0.00000	4418.37500
6.92718	0.00000	4418.37500
6.93102	0.00000	4418.37500
6.93485	0.00000	4418.37500
6.93868	0.00000	4418.37500
6.94251	0.00000	4416.13700
6.94635	0.00000	4416.13700
6.95018	0.00000	4416.13700
6.95400	0.00000	4416.13700
6.95784	0.00000	4416.13700
6.96168	0.00000	4419.64300
6.96552	0.00000	4419.64300
6.96931	0.00000	4419.64300
6.97314	0.00000	4419.64300
6.97698	0.00000	4419.64300
6.98081	0.00000	4419.64300
6.98464	0.00000	4415.94300
6.98847	0.00000	4415.94300
6.99231	0.00000	4415.94300
6.99612	0.00000	4415.94300
6.99996	0.00000	4415.94300
7.00379	0.00000	4416.66600
7.00762	0.00000	4416.66600
7.01145	0.00000	4416.66600
7.01529	0.00000	4416.66600
7.01912	0.00000	4416.66600
7.02295	0.00000	4416.66600
7.02678	0.00000	4412.98300
7.03060	0.00000	4412.98300
7.03443	0.00000	4412.98300
7.03827	0.00000	4412.98300
7.04209	0.00000	4412.98300
7.04593	0.00000	4416.66600
7.04976	0.00000	4416.66600
7.05359	0.00000	4416.66600
7.05742	0.00000	4416.66600
7.06125	0.00000	4416.66600
7.06508	0.00000	4413.69000
7.06891	0.00000	4413.69000
7.07274	0.00000	4413.69000
7.07658	0.00000	4413.69000
7.08040	0.00000	4413.69000
7.08424	0.00000	4413.69000
7.08807	0.00000	4414.37000
7.09193	0.00000	4414.37000
7.09576	0.00000	4414.37000
7.09959	0.00000	4414.37000
7.10342	0.00000	4414.37000
7.10724	0.00000	4416.66600
7.11108	0.00000	4416.66600
7.11491	0.00000	4416.66600
7.11874	0.00000	4416.66600
7.12257	0.00000	4416.66600
7.12641	0.00000	4413.16400
7.13024	0.00000	4413.16400
7.13407	0.00000	4413.16400
7.13790	0.00000	4413.16400
7.14174	0.00000	4413.16400
7.14557	0.00000	4413.16400
7.14941	0.00000	4418.58100
7.15323	0.00000	4418.58100
7.15707	0.00000	4418.58100
7.16089	0.00000	4418.58100
7.16473	0.00000	4418.58100
7.16856	0.00000	4416.66600
7.17239	0.00000	4416.66600
7.17622	0.00000	4416.66600
7.18005	0.00000	4416.66600
7.18388	0.00000	4416.66600
7.18771	0.00000	4416.66600
7.19154	0.00000	4415.41800
7.19537	0.00000	4415.41800
7.19920	0.00000	4415.41800
7.20303	0.00000	4415.41800
7.20686	0.00000	4415.41800
7.21070	0.00000	4408.26000
7.21452	0.00000	4408.26000
7.21836	0.00000	4408.26000
7.22219	0.00000	4408.26000
7.22602	0.00000	4408.26000
7.22986	0.00000	4416.13700
7.23371	0.00000	4416.13700
7.23753	0.00000	4416.13700
7.24136	0.00000	4416.13700
7.24519	0.00000	4416.13700
7.24903	0.00000	4416.13700
7.25286	0.00000	4416.46900
7.25669	0.00000	4416.46900
7.26051	0.00000	4416.46900
7.26434	0.00000	4416.46900
7.26817	0.00000	4416.46900
7.27200	0.00000	4419.11200
7.27582	0.00000	4419.11200
7.27966	0.00000	4419.11200
7.28348	0.00000	4419.11200
7.28731	0.00000	4419.11200
7.29114	0.00000	4419.11200
7.29497	0.00000	4413.50700
7.29880	0.00000	4413.50700
7.30264	0.00000	4413.50700
7.30646	0.00000	4413.50700
7.31030	0.00000	4413.50700
7.31413	0.00000	4419.11200
7.31798	0.00000	4419.11200
7.32181	0.00000	4419.11200
7.32563	0.00000	4419.11200
7.32947	0.00000	4419.11200
7.33330	0.00000	4413.69000
7.33713	0.00000	4413.69000
7.34095	0.00000	4413.69000
7.34478	0.00000	4413.69000
7.34861	0.00000	4413.69000
7.35244	0.00000	4413.69000
7.35627	0.00000	4420.80300
7.36010	0.00000	4420.80300
7.36395	0.00000	4420.80300
7.36777	0.00000	4420.80300
7.37160	0.00000	4420.80300
7.37544	0.00000	4422.08500
7.37927	0.00000	4422.08500
7.38310	0.00000	4422.08500
7.38693	0.00000	4422.08500
7.39076	0.00000	4422.08500
7.39459	0.00000	4415.08300
7.39842	0.00000	4415.08300
7.40225	0.00000	4415.08300
7.40607	0.00000	4415.08300
7.40990	0.00000	4415.08300
7.41374	0.00000	4415.08300
7.41757	0.00000	4413.16400
7.42141	0.00000	4413.16400
7.42524	0.00000	4413.16400
7.42907	0.00000	4413.16400
7.43289	0.00000	4413.16400
7.43673	0.00000	4416.13700
7.44055	0.00000	4416.13700
7.44438	0.00000	4416.13700
7.44821	0.00000	4416.13700
7.45204	0.00000	4416.13700
7.45587	0.00000	4416.13700
7.45970	0.00000	4417.32300
7.46353	0.00000	4417.32300
7.46736	0.00000	4417.32300
7.47118	0.00000	4417.32300
7.47501	0.00000	4417.32300
7.47885	0.00000	4413.69000
7.48268	0.00000	4413.69000
7.48650	0.00000	4413.69000
7.49033	0.00000	4413.69000
7.49417	0.00000	4413.69000
7.49799	0.00000	4413.16400
7.50181	0.00000	4413.16400
7.50565	0.00000	4413.16400
7.50947	0.00000	4413.16400
7.51330	0.00000	4413.16400
7.51712	0.00000	4413.16400
7.52095	0.00000	4415.61000
7.52477	0.00000	4415.61000
7.52861	0.00000	4415.61000
7.53244	0.00000	4415.61000
7.53628	0.00000	4415.61000
7.54011	0.00000	4422.08500
7.54395	0.00000	4422.08500
7.54777	0.00000	4422.08500
7.55161	0.00000	4422.08500
7.55544	0.00000	4422.08500
7.55928	0.00000	4422.08500
7.56310	0.00000	4418.37500
7.56693	0.00000	4418.37500
7.57075	0.00000	4418.37500
7.57459	0.00000	4418.37500
7.57842	0.00000	4418.37500
7.58225	0.00000	4419.11200
7.58609	0.00000	4419.11200
7.58992	0.00000	4419.11200
7.59374	0.00000	4419.11200
7.59757	0.00000	4419.11200
7.60140	0.00000	4420.17500
7.60523	0.00000	4420.17500
7.60907	0.00000	4420.17500
7.61289	0.00000	4420.17500
7.61672	0.00000	4420.17500
7.62055	0.00000	4420.17500
7.62437	0.00000	4414.89300
7.62821	0.00000	4414.89300
7.63204	0.00000	4414.89300
7.63586	0.00000	4414.89300
7.63969	0.00000	4414.89300
7.64352	0.00000	4416.13700
7.64736	0.00000	4416.13700
7.65118	0.00000	4416.13700
7.65501	0.00000	4416.13700
7.65884	0.00000	4416.13700
7.66266	0.00000	4416.13700
7.66649	0.00000	4419.43100
7.67031	0.00000	4419.43100
7.67415	0.00000	4419.43100
7.67798	0.00000	4419.43100
7.68181	0.00000	4419.43100
7.68564	0.00000	4416.66600
7.68947	0.00000	4416.66600
7.69330	0.00000	4416.66600
7.69714	0.00000	4416.66600
7.70098	0.00000	4416.66600
7.70480	0.00000	4419.11200
7.70865	0.00000	4419.11200
7.71249	0.00000	4419.11200
7.71632	0.00000	4419.11200
7.72012	0.00000	4419.11200
7.72396	0.00000	4419.11200
7.72779	0.00000	4417.84800
7.73161	0.00000	4417.84800
7.73544	0.00000	4417.84800
7.73928	0.00000	4417.84800
7.74312	0.00000	4417.84800
7.74696	0.00000	4414.21800
7.75078	0.00000	4414.21800
7.75461	0.00000	4414.21800
7.75844	0.00000	4414.21800
7.76228	0.00000	4414.21800
7.76612	0.00000	4416.66600
7.76995	0.00000	4416.66600
7.77378	0.00000	4416.66600
7.77761	0.00000	4416.66600
7.78144	0.00000	4416.66600
7.78528	0.00000	4416.66600
7.78910	0.00000	4418.58100
7.79293	0.00000	4418.58100
7.79676	0.00000	4418.58100
7.80058	0.00000	4418.58100
7.80441	0.00000	4418.58100
7.80825	0.00000	4410.71400
7.81209	0.00000	4410.71400
7.81595	0.00000	4410.71400
7.81978	0.00000	4410.71400
7.82360	0.00000	4410.71400
7.82743	0.00000	4410.71400
7.83126	0.00000	4415.41800
7.83510	0.00000	4415.41800
7.83893	0.00000	4415.41800
7.84276	0.00000	4415.41800
7.84659	0.00000	4415.41800
7.85042	0.00000	4414.21800
7.85424	0.00000	4414.21800
7.85807	0.00000	4414.21800
7.86189	0.00000	4414.21800
7.86572	0.00000	4414.21800
7.86955	0.00000	4410.71400
7.87338	0.00000	4410.71400
7.87721	0.00000	4410.71400
7.88103	0.00000	4410.71400
7.88487	0.00000	4410.71400
7.88869	0.00000	4410.71400
7.89253	0.00000	4414.55700
7.89636	0.00000	4414.55700
7.90019	0.00000	4414.55700
7.90402	0.00000	4414.55700
7.90785	0.00000	4414.55700
7.91169	0.00000	4408.26000
7.91552	0.00000	4408.26000
7.91936	0.00000	4408.26000
7.92320	0.00000	4408.26000
7.92711	0.00000	4408.26000
7.93097	0.00000	4408.26000
7.93481	0.00000	4408.26000
7.93865	0.00000	4408.26000
7.94249	0.00000	4408.26000
7.94632	0.00000	4408.26000
7.95015	0.00000	4408.26000
7.95398	0.00000	4411.23900
7.95782	0.00000	4411.23900
7.96165	0.00000	4411.23900
7.96548	0.00000	4411.23900
7.96931	0.00000	4411.23900
7.97315	0.00000	4408.26000
7.97698	0.00000	4408.26000
7.98081	0.00000	4408.26000
7.98465	0.00000	4408.26000
7.98848	0.00000	4408.26000
7.99232	0.00000	4408.26000
7.99612	0.00000	4407.06400
7.99995	0.00000	4407.06400
8.00379	0.00000	4407.06400
8.00762	0.00000	4407.06400
8.01147	0.00000	4407.06400
8.01531	0.00000	4408.26000
8.01913	0.00000	4408.26000
8.02296	0.00000	4408.26000
8.02679	0.00000	4408.26000
8.03063	0.00000	4408.26000
8.03446	0.00000	4411.76400
8.03832	0.00000	4411.76400
8.04216	0.00000	4411.76400
8.04599	0.00000	4411.76400
8.04982	0.00000	4411.76400
8.05366	0.00000	4411.76400
8.05748	0.00000	4405.65600
8.06131	0.00000	4405.65600
8.06514	0.00000	4405.65600
8.06898	0.00000	4405.65600
8.07281	0.00000	4405.65600
8.07664	0.00000	4408.26000
8.08048	0.00000	4408.26000
8.08431	0.00000	4408.26000
8.08812	0.00000	4408.26000
8.09195	0.00000	4408.26000
8.09577	0.00000	4402.82200
8.09960	0.00000	4402.82200
8.10343	0.00000	4402.82200
8.10725	0.00000	4402.82200
8.11109	0.00000	4402.82200
8.11493	0.00000	4402.82200
8.11876	0.00000	4407.73800
8.12259	0.00000	4407.73800
8.12642	0.00000	4407.73800
8.13025	0.00000	4407.73800
8.13408	0.00000	4407.73800
8.13792	0.00000	4400.35800
8.14176	0.00000	4400.35800
8.14559	0.00000	4400.35800
8.14943	0.00000	4400.35800
8.15326	0.00000	4400.35800
8.15709	0.00000	4400.35800
8.16092	0.00000	4410.02400
8.16476	0.00000	4410.02400
8.16859	0.00000	4410.02400
8.17242	0.00000	4410.02400
8.17626	0.00000	4410.02400
8.18010	0.00000	4406.84700
8.18394	0.00000	4406.84700
8.18778	0.00000	4406.84700
8.19161	0.00000	4406.84700
8.19544	0.00000	4406.84700
8.19927	0.00000	4408.78300
8.20312	0.00000	4408.78300
8.20695	0.00000	4408.78300
8.21078	0.00000	4408.78300
8.21461	0.00000	4408.78300
8.21845	0.00000	4408.78300
8.22228	0.00000	4404.10400
8.22612	0.00000	4404.10400
8.22995	0.00000	4404.10400
8.23379	0.00000	4404.10400
8.23762	0.00000	4404.10400
8.24145	0.00000	4405.80200
8.24529	0.00000	4405.80200
8.24912	0.00000	4405.80200
8.25295	0.00000	4405.80200
8.25678	0.00000	4405.80200
8.26062	0.00000	4400.87600
8.26445	0.00000	4400.87600
8.26829	0.00000	4400.87600
8.27212	0.00000	4400.87600
8.27595	0.00000	4400.87600
8.27978	0.00000	4400.87600
8.28362	0.00000	4405.28200
8.28744	0.00000	4405.28200
8.29128	0.00000	4405.28200
8.29511	0.00000	4405.28200
8.29897	0.00000	4405.28200
8.30282	0.00000	4400.35800
8.30665	0.00000	4400.35800
8.31049	0.00000	4400.35800
8.31432	0.00000	4400.35800
8.31815	0.00000	4400.35800
8.32198	0.00000	4400.35800
8.32580	0.00000	4408.62300
8.32963	0.00000	4408.62300
8.33346	0.00000	4408.62300
8.33729	0.00000	4408.62300
8.34112	0.00000	4408.62300
8.34495	0.00000	4408.78300
8.34878	0.00000	4408.78300
8.35261	0.00000	4408.78300
8.35645	0.00000	4408.78300
8.36027	0.00000	4408.78300
8.36410	0.00000	4402.82200
8.36794	0.00000	4402.82200
8.37177	0.00000	4402.82200
8.37560	0.00000	4402.82200
8.37942	0.00000	4402.82200
8.38325	0.00000	4402.82200
8.38709	0.00000	4407.06400
8.39092	0.00000	4407.06400
8.39475	0.00000	4407.06400
8.39859	0.00000	4407.06400
8.40243	0.00000	4407.06400
8.40626	0.00000	4402.82200
8.41009	0.00000	4402.82200
8.41393	0.00000	4402.82200
8.41776	0.00000	4402.82200
8.42158	0.00000	4402.82200
8.42542	0.00000	4408.26000
8.42926	0.00000	4408.26000
8.43309	0.00000	4408.26000
8.43692	0.00000	4408.26000
8.44075	0.00000	4408.26000
8.44459	0.00000	4408.26000
8.44842	0.00000	4404.24200
8.45225	0.00000	4404.24200
8.45608	0.00000	4404.24200
8.45992	0.00000	4404.24200
8.46375	0.00000	4404.24200
8.46758	0.00000	4403.86100
8.47141	0.00000	4403.86100
8.47523	0.00000	4403.86100
8.47907	0.00000	4403.86100
8.48289	0.00000	4403.86100
8.48672	0.00000	4403.86100
8.49055	0.00000	4408.10200
8.49438	0.00000	4408.10200
8.49821	0.00000	4408.10200
8.50204	0.00000	4408.10200
8.50587	0.00000	4408.10200
8.50970	0.00000	4406.32400
8.51353	0.00000	4406.32400
8.51736	0.00000	4406.32400
8.52119	0.00000	4406.32400
8.52502	0.00000	4406.32400
8.52885	0.00000	4406.32400
8.53270	0.00000	4406.32400
8.53654	0.00000	4406.32400
8.54036	0.00000	4406.32400
8.54418	0.00000	4406.32400
8.54801	0.00000	4406.32400
8.55185	0.00000	4404.10400
8.55568	0.00000	4404.10400
8.55952	0.00000	4404.10400
8.56335	0.00000	4404.10400
8.56718	0.00000	4404.10400
8.57102	0.00000	4406.32400
8.57484	0.00000	4406.32400
8.57867	0.00000	4406.32400
8.58250	0.00000	4406.32400
8.58634	0.00000	4406.32400
8.59017	0.00000	4405.80200
8.59400	0.00000	4405.80200
8.59783	0.00000	4405.80200
8.60165	0.00000	4405.80200
8.60549	0.00000	4405.80200
8.60932	0.00000	4405.80200
8.61315	0.00000	4410.71400
8.61698	0.00000	4410.71400
8.62081	0.00000	4410.71400
8.62465	0.00000	4410.71400
8.62848	0.00000	4410.71400
8.63232	0.00000	4403.86100
8.63612	0.00000	4403.86100
8.63996	0.00000	4403.86100
8.64379	0.00000	4403.86100
8.64763	0.00000	4403.86100
8.65146	0.00000	4403.86100
8.65530	0.00000	4395.83300
8.65912	0.00000	4395.83300
8.66296	0.00000	4395.83300
8.66680	0.00000	4395.83300
8.67064	0.00000	4395.83300
8.67448	0.00000	4403.86100
8.67831	0.00000	4403.86100
8.68214	0.00000	4403.86100
8.68597	0.00000	4403.86100
8.68980	0.00000	4403.86100
8.69363	0.00000	4395.41800
8.69746	0.00000	4395.41800
8.70128	0.00000	4395.41800
8.70512	0.00000	4395.41800
8.70895	0.00000	4395.41800
8.71278	0.00000	4395.41800
8.71662	0.00000	4396.24500
8.72045	0.00000	4396.24500
8.72428	0.00000	4396.24500
8.72812	0.00000	4396.24500
8.73195	0.00000	4396.24500
8.73578	0.00000	4400.35800
8.73961	0.00000	4400.35800
8.74344	0.00000	4400.35800
8.74729	0.00000	4400.35800
8.75111	0.00000	4400.35800
8.75494	0.00000	4403.86100
8.75879	0.00000	4403.86100
8.76262	0.00000	4403.86100
8.76645	0.00000	4403.86100
8.77027	0.00000	4403.86100
8.77411	0.00000	4403.86100
8.77794	0.00000	4400.23800
8.78176	0.00000	4400.23800
8.78560	0.00000	4400.23800
8.78943	0.00000	4400.23800
8.79326	0.00000	4400.23800
8.79709	0.00000	4397.89000
8.80094	0.00000	4397.89000
8.80478	0.00000	4397.89000
8.80861	0.00000	4397.89000
8.81244	0.00000	4397.89000
8.81628	0.00000	4392.43000
8.82010	0.00000	4392.43000
8.82394	0.00000	4392.43000
8.82776	0.00000	4392.43000
8.83159	0.00000	4392.43000
8.83542	0.00000	4392.43000
8.83926	0.00000	4405.28200
8.84309	0.00000	4405.28200
8.84691	0.00000	4405.28200
8.85075	0.00000	4405.28200
8.85458	0.00000	4405.28200
8.85840	0.00000	4400.87600
8.86224	0.00000	4400.87600
8.86607	0.00000	4400.87600
8.86990	0.00000	4400.87600
8.87373	0.00000	4400.87600
8.87756	0.00000	4400.87600
8.88140	0.00000	4398.29500
8.88525	0.00000	4398.29500
8.88908	0.00000	4398.29500
8.89292	0.00000	4398.29500
8.89675	0.00000	4398.29500
8.90058	0.00000	4394.90400
8.90442	0.00000	4394.90400
8.90825	0.00000	4394.90400
8.91207	0.00000	4394.90400
8.91591	0.00000	4394.90400
8.91974	0.00000	4398.40600
8.92358	0.00000	4398.40600
8.92741	0.00000	4398.40600
8.93125	0.00000	4398.40600
8.93507	0.00000	4398.40600
8.93890	0.00000	4398.40600
8.94272	0.00000	4397.26800
8.94655	0.00000	4397.26800
8.95038	0.00000	4397.26800
8.95421	0.00000	4397.26800
8.95803	0.00000	4397.26800
8.96188	0.00000	4398.40600
8.96571	0.00000	4398.40600
8.96955	0.00000	4398.40600
8.97337	0.00000	4398.40600
8.97720	0.00000	4398.40600
8.98103	0.00000	4401.91400
8.98486	0.00000	4401.91400
8.98869	0.00000	4401.91400
8.99253	0.00000	4401.91400
8.99636	0.00000	4401.91400
9.00018	0.00000	4401.91400
9.00402	0.00000	4396.24500
9.00785	0.00000	4396.24500
9.01167	0.00000	4396.24500
9.01549	0.00000	4396.24500
9.01933	0.00000	4396.24500
9.02316	0.00000	4400.87600
9.02698	0.00000	4400.87600
9.03081	0.00000	4400.87600
9.03464	0.00000	4400.87600
9.03847	0.00000	4400.87600
9.04230	0.00000	4403.34100
9.04613	0.00000	4403.34100
9.04996	0.00000	4403.34100
9.05379	0.00000	4403.34100
9.05762	0.00000	4403.34100
9.06145	0.00000	4403.34100
9.06529	0.00000	4394.39100
9.06911	0.00000	4394.39100
9.07295	0.00000	4394.39100
9.07677	0.00000	4394.39100
9.08060	0.00000	4394.39100
9.08443	0.00000	4402.82200
9.08826	0.00000	4402.82200
9.09208	0.00000	4402.82200
9.09593	0.00000	4402.82200
9.09975	0.00000	4402.82200
9.10357	0.00000	4402.82200
9.10740	0.00000	4400.23800
9.11123	0.00000	4400.23800
9.11506	0.00000	4400.23800
9.11890	0.00000	4400.23800
9.12273	0.00000	4400.23800
9.12656	0.00000	4403.34100
9.13038	0.00000	4403.34100
9.13421	0.00000	4403.34100
9.13804	0.00000	4403.34100
9.14186	0.00000	4403.34100
9.14569	0.00000	4400.87600
9.14954	0.00000	4400.87600
9.15338	0.00000	4400.87600
9.15721	0.00000	4400.87600
9.16104	0.00000	4400.87600
9.16488	0.00000	4400.87600
9.16872	0.00000	4405.13800
9.17254	0.00000	4405.13800
9.17638	0.00000	4405.13800
9.18020	0.00000	4405.13800
9.18404	0.00000	4405.13800
9.18787	0.00000	4401.39400
9.19169	0.00000	4401.39400
9.19552	0.00000	4401.39400
9.19935	0.00000	4401.39400
9.20318	0.00000	4401.39400
9.20700	0.00000	4398.40600
9.21083	0.00000	4398.40600
9.21466	0.00000	4398.40600
9.21850	0.00000	4398.40600
9.22233	0.00000	4398.40600
9.22616	0.00000	4398.40600
9.23001	0.00000	4396.34600
9.23384	0.00000	4396.34600
9.23768	0.00000	4396.34600
9.24150	0.00000	4396.34600
9.24534	0.00000	4396.34600
9.24917	0.00000	4400.87600
9.25301	0.00000	4400.87600
9.25683	0.00000	4400.87600
9.26066	0.00000	4400.87600
9.26449	0.00000	4400.87600
9.26833	0.00000	4400.87600
9.27212	0.00000	4404.76200
9.27595	0.00000	4404.76200
9.27978	0.00000	4404.76200
9.28362	0.00000	4404.76200
9.28744	0.00000	4404.76200
9.29128	0.00000	4402.82200
9.29514	0.00000	4402.82200
9.29900	0.00000	4402.82200
9.30285	0.00000	4402.82200
9.30668	0.00000	4402.82200
9.31052	0.00000	4403.34100
9.31435	0.00000	4403.34100
9.31819	0.00000	4403.34100
9.32202	0.00000	4403.34100
9.32585	0.00000	4403.34100
9.32969	0.00000	4403.34100
9.33352	0.00000	4399.20900
9.33738	0.00000	4399.20900
9.34122	0.00000	4399.20900
9.34505	0.00000	4399.20900
9.34888	0.00000	4399.20900
9.35272	0.00000	4405.80200
9.35655	0.00000	4405.80200
9.36039	0.00000	4405.80200
9.36423	0.00000	4405.80200
9.36806	0.00000	4405.80200
9.37191	0.00000	4398.40600
9.37575	0.00000	4398.40600
9.37957	0.00000	4398.40600
9.38340	0.00000	4398.40600
9.38723	0.00000	4398.40600
9.39107	0.00000	4398.40600
9.39490	0.00000	4404.62000
9.39874	0.00000	4404.62000
9.40257	0.00000	4404.62000
9.40640	0.00000	4404.62000
9.41023	0.00000	4404.62000
9.41408	0.00000	4398.40600
9.41791	0.00000	4398.40600
9.42175	0.00000	4398.40600
9.42558	0.00000	4398.40600
9.42941	0.00000	4398.40600
9.43324	0.00000	4400.87600
9.43708	0.00000	4400.87600
9.44091	0.00000	4400.87600
9.44475	0.00000	4400.87600
9.44858	0.00000	4400.87600
9.45242	0.00000	4400.87600
9.45627	0.00000	4402.30300
9.46011	0.00000	4402.30300
9.46395	0.00000	4402.30300
9.46778	0.00000	4402.30300
9.47161	0.00000	4402.30300
9.47544	0.00000	4406.32400
9.47927	0.00000	4406.32400
9.48311	0.00000	4406.32400
9.48694	0.00000	4406.32400
9.49078	0.00000	4406.32400
9.49461	0.00000	4406.32400
9.49848	0.00000	4402.30300
9.50233	0.00000	4402.30300
9.50617	0.00000	4402.30300
9.51001	0.00000	4402.30300
9.51387	0.00000	4402.30300
9.51770	0.00000	4402.82200
9.52153	0.00000	4402.82200
9.52536	0.00000	4402.82200
9.52921	0.00000	4402.82200
9.53304	0.00000	4402.82200
9.53688	0.00000	4405.80200
9.54070	0.00000	4405.80200
9.54453	0.00000	4405.80200
9.54837	0.00000	4405.80200
9.55219	0.00000	4405.80200
9.55604	0.00000	4405.80200
9.55987	0.00000	4402.17400
9.56371	0.00000	4402.17400
9.56754	0.00000	4402.17400
9.57137	0.00000	4402.17400
9.57520	0.00000	4402.17400
9.57903	0.00000	4400.35800
9.58287	0.00000	4400.35800
9.58671	0.00000	4400.35800
9.59055	0.00000	4400.35800
9.59438	0.00000	4400.35800
9.59822	0.00000	4397.89000
9.60206	0.00000	4397.89000
9.60589	0.00000	4397.89000
9.60972	0.00000	4397.89000
9.61355	0.00000	4397.89000
9.61739	0.00000	4397.89000
9.62121	0.00000	4401.65800
9.62504	0.00000	4401.65800
9.62888	0.00000	4401.65800
9.63271	0.00000	4401.65800
9.63654	0.00000	4401.65800
9.64037	0.00000	4394.90400
9.64420	0.00000	4394.90400
9.64803	0.00000	4394.90400
9.65185	0.00000	4394.90400
9.65568	0.00000	4394.90400
9.65951	0.00000	4403.34100
9.66336	0.00000	4403.34100
9.66720	0.00000	4403.34100
9.67102	0.00000	4403.34100
9.67485	0.00000	4403.34100
9.67869	0.00000	4403.34100
9.68253	0.00000	4402.30300
9.68636	0.00000	4402.30300
9.69019	0.00000	4402.30300
9.69402	0.00000	4402.30300
9.69785	0.00000	4402.30300
9.70168	0.00000	4400.87600
9.70552	0.00000	4400.87600
9.70934	0.00000	4400.87600
9.71318	0.00000	4400.87600
9.71701	0.00000	4400.87600
9.72085	0.00000	4400.87600
9.72468	0.00000	4395.32100
9.72851	0.00000	4395.32100
9.73234	0.00000	4395.32100
9.73617	0.00000	4395.32100
9.74000	0.00000	4395.32100
9.74384	0.00000	4403.34100
9.74767	0.00000	4403.34100
9.75150	0.00000	4403.34100
9.75533	0.00000	4403.34100
9.75916	0.00000	4403.34100
9.76298	0.00000	4399.84100
9.76682	0.00000	4399.84100
9.77065	0.00000	4399.84100
9.77448	0.00000	4399.84100
9.77831	0.00000	4399.84100
9.78217	0.00000	4399.84100
9.78599	0.00000	4396.75600
9.78982	0.00000	4396.75600
9.79365	0.00000	4396.75600
9.79749	0.00000	4396.75600
9.80135	0.00000	4396.75600
9.80519	0.00000	4397.89000
9.80902	0.00000	4397.89000
9.81287	0.00000	4397.89000
9.81671	0.00000	4397.89000
9.82055	0.00000	4397.89000
9.82439	0.00000	4400.87600
9.82824	0.00000	4400.87600
9.83208	0.00000	4400.87600
9.83592	0.00000	4400.87600
9.83976	0.00000	4400.87600
9.84361	0.00000	4400.87600
9.84745	0.00000	4405.13800
9.85128	0.00000	4405.13800
9.85511	0.00000	4405.13800
9.85895	0.00000	4405.13800
9.86278	0.00000	4405.13800
9.86662	0.00000	4402.82200
9.87044	0.00000	4402.82200
9.87428	0.00000	4402.82200
9.87812	0.00000	4402.82200
9.88196	0.00000	4402.82200
9.88581	0.00000	4400.87600
9.88966	0.00000	4400.87600
9.89351	0.00000	4400.87600
9.89735	0.00000	4400.87600
9.90118	0.00000	4400.87600
9.90500	0.00000	4400.87600
9.90884	0.00000	4399.32400
9.91267	0.00000	4399.32400
9.91650	0.00000	4399.32400
9.92033	0.00000	4399.32400
9.92412	0.00000	4399.32400
9.92796	0.00000	4400.87600
9.93179	0.00000	4400.87600
9.93563	0.00000	4400.87600
9.93946	0.00000	4400.87600
9.94329	0.00000	4400.87600
9.94712	0.00000	4400.87600
9.95095	0.00000	4405.28200
9.95477	0.00000	4405.28200
9.95860	0.00000	4405.28200
9.96243	0.00000	4405.28200
9.96626	0.00000	4405.28200
9.97009	0.00000	4403.86100
9.97392	0.00000	4403.86100
9.97777	0.00000	4403.86100
9.98161	0.00000	4403.86100
9.98544	0.00000	4403.86100
9.98928	0.00000	4401.39400
9.99312	0.00000	4401.39400
9.99696	0.00000	4401.39400
