Time (s)   Thrust (N)   RPM
0.00030	0.00000	4406.25000
0.00419	0.00000	4406.25000
0.00804	0.00000	4406.25000
0.01189	0.00000	4406.25000
0.01573	0.00000	4406.25000
0.01958	0.00000	4395.93300
0.02344	0.00000	4395.93300
0.02734	0.00000	4395.93300
0.03117	0.00000	4395.93300
0.03502	0.00000	4395.93300
0.03885	0.00000	4395.93300
0.04269	0.00000	4302.63200
0.04652	0.00000	4302.63200
0.05036	0.00000	4302.63200
0.05422	0.00000	4302.63200
0.05806	0.00000	4302.63200
0.06187	0.00000	4187.13500
0.06573	0.00000	4187.13500
0.06955	0.00000	4187.13500
0.07338	0.00000	4187.13500
0.07721	0.00000	4187.13500
0.08104	0.00000	4092.93000
0.08486	0.00000	4092.93000
0.08868	0.00000	4092.93000
0.09250	0.00000	4092.93000
0.09632	0.00000	4092.93000
0.10014	0.00000	4023.60500
0.10397	0.00000	4023.60500
0.10780	0.00000	4023.60500
0.11162	0.00000	4023.60500
0.11544	0.00000	4023.60500
0.11926	0.00000	3955.61300
0.12309	0.00000	3955.61300
0.12692	0.00000	3955.61300
0.13075	0.00000	3955.61300
0.13458	0.00000	3896.01700
0.13840	0.00000	3896.01700
0.14223	0.00000	3896.01700
0.14606	0.00000	3896.01700
0.14987	0.00000	3896.01700
0.15370	0.00000	3847.09800
0.15752	0.00000	3847.09800
0.16136	0.00000	3847.09800
0.16519	0.00000	3847.09800
0.16902	0.00000	3847.09800
0.17286	0.00000	3807.12300
0.17668	0.00000	3807.12300
0.18051	0.00000	3807.12300
0.18434	0.00000	3807.12300
0.18816	0.00000	3807.12300
0.19200	0.00000	3770.28800
0.19583	0.00000	3770.28800
0.19965	0.00000	3770.28800
0.20347	0.00000	3770.28800
0.20729	0.00000	3729.47000
0.21111	0.00000	3729.47000
0.21495	0.00000	3729.47000
0.21877	0.00000	3729.47000
0.22261	0.00000	3729.47000
0.22644	0.00000	3701.79000
0.23027	0.00000	3701.79000
0.23410	0.00000	3701.79000
0.23793	0.00000	3701.79000
0.24175	0.00000	3701.79000
0.24558	0.00000	3681.19200
0.24940	0.00000	3681.19200
0.25322	0.00000	3681.19200
0.25705	0.00000	3681.19200
0.26087	0.00000	3652.59700
0.26469	0.00000	3652.59700
0.26853	0.00000	3652.59700
0.27236	0.00000	3652.59700
0.27619	0.00000	3652.59700
0.28002	0.00000	3624.76800
0.28385	0.00000	3624.76800
0.28769	0.00000	3624.76800
0.29156	0.00000	3624.76800
0.29540	0.00000	3624.76800
0.29922	0.00000	3614.33200
0.30306	0.00000	3614.33200
0.30689	0.00000	3614.33200
0.31073	0.00000	3614.33200
0.31457	0.00000	3599.15800
0.31840	0.00000	3599.15800
0.32223	0.00000	3599.15800
0.32606	0.00000	3599.15800
0.32987	0.00000	3599.15800
0.33370	0.00000	3589.23500
0.33753	0.00000	3589.23500
0.34136	0.00000	3589.23500
0.34519	0.00000	3589.23500
0.34902	0.00000	3573.61200
0.35285	0.00000	3573.61200
0.35670	0.00000	3573.61200
0.36052	0.00000	3573.61200
0.36436	0.00000	3573.61200
0.36820	0.00000	3560.21500
0.37205	0.00000	3560.21500
0.37590	0.00000	3560.21500
0.37974	0.00000	3560.21500
0.38357	0.00000	3558.78200
0.38740	0.00000	3558.78200
0.39123	0.00000	3558.78200
0.39507	0.00000	3558.78200
0.39890	0.00000	3558.78200
0.40274	0.00000	3547.96800
0.40657	0.00000	3547.96800
0.41040	0.00000	3547.96800
0.41422	0.00000	3547.96800
0.41805	0.00000	3547.96800
0.42188	0.00000	3538.13500
0.42571	0.00000	3538.13500
0.42953	0.00000	3538.13500
0.43336	0.00000	3538.13500
0.43719	0.00000	3536.93200
0.44101	0.00000	3536.93200
0.44484	0.00000	3536.93200
0.44867	0.00000	3536.93200
0.45250	0.00000	3536.93200
0.45633	0.00000	3524.01100
0.46016	0.00000	3524.01100
0.46399	0.00000	3524.01100
0.46782	0.00000	3524.01100
0.47164	0.00000	3518.73800
0.47546	0.00000	3518.73800
0.47929	0.00000	3518.73800
0.48312	0.00000	3518.73800
0.48695	0.00000	3518.73800
0.49077	0.00000	3512.97100
0.49461	0.00000	3512.97100
0.49845	0.00000	3512.97100
0.50229	0.00000	3512.97100
0.50612	0.00000	3507.60400
0.50995	0.00000	3507.60400
0.51377	0.00000	3507.60400
0.51759	0.00000	3507.60400
0.52142	0.00000	3507.60400
0.52526	0.00000	3505.66500
0.52909	0.00000	3505.66500
0.53291	0.00000	3505.66500
0.53673	0.00000	3505.66500
0.54056	0.00000	3503.57100
0.54438	0.00000	3503.57100
0.54821	0.00000	3503.57100
0.55203	0.00000	3503.57100
0.55585	0.00000	3503.57100
0.55968	0.00000	3491.01200
0.56351	0.00000	3491.01200
0.56734	0.00000	3491.01200
0.57116	0.00000	3491.01200
0.57499	0.00000	3496.18600
0.57882	0.00000	3496.18600
0.58264	0.00000	3496.18600
0.58646	0.00000	3496.18600
0.59028	0.00000	3496.18600
0.59411	0.00000	3490.52100
0.59795	0.00000	3490.52100
0.60178	0.00000	3490.52100
0.60560	0.00000	3490.52100
0.60943	0.00000	3484.95700
0.61326	0.00000	3484.95700
0.61708	0.00000	3484.95700
0.62090	0.00000	3484.95700
0.62473	0.00000	3484.95700
0.62856	0.00000	3483.15900
0.63239	0.00000	3483.15900
0.63621	0.00000	3483.15900
0.64004	0.00000	3483.15900
0.64387	0.00000	3488.28800
0.64771	0.00000	3488.28800
0.65154	0.00000	3488.28800
0.65537	0.00000	3488.28800
0.65919	0.00000	3488.28800
0.66302	0.00000	3479.60100
0.66684	0.00000	3479.60100
0.67066	0.00000	3479.60100
0.67449	0.00000	3479.60100
0.67832	0.00000	3484.70300
0.68214	0.00000	3484.70300
0.68596	0.00000	3484.70300
0.68979	0.00000	3484.70300
0.69361	0.00000	3484.70300
0.69744	0.00000	3475.78300
0.70126	0.00000	3475.78300
0.70508	0.00000	3475.78300
0.70891	0.00000	3475.78300
0.71273	0.00000	3481.11800
0.71656	0.00000	3481.11800
0.72039	0.00000	3481.11800
0.72422	0.00000	3481.11800
0.72805	0.00000	3481.11800
0.73188	0.00000	3479.08700
0.73570	0.00000	3479.08700
0.73952	0.00000	3479.08700
0.74335	0.00000	3479.08700
0.74718	0.00000	3473.68400
0.75102	0.00000	3473.68400
0.75484	0.00000	3473.68400
0.75866	0.00000	3473.68400
0.76249	0.00000	3473.68400
0.76632	0.00000	3468.66100
0.77015	0.00000	3468.66100
0.77397	0.00000	3468.66100
0.77780	0.00000	3468.66100
0.78162	0.00000	3473.68400
0.78544	0.00000	3473.68400
0.78927	0.00000	3473.68400
0.79312	0.00000	3473.68400
0.79696	0.00000	3473.68400
0.80078	0.00000	3471.42800
0.80461	0.00000	3471.42800
0.80843	0.00000	3471.42800
0.81226	0.00000	3471.42800
0.81608	0.00000	3473.68400
0.81991	0.00000	3473.68400
0.82373	0.00000	3473.68400
0.82755	0.00000	3473.68400
0.83137	0.00000	3473.68400
0.83520	0.00000	3475.52300
0.83903	0.00000	3475.52300
0.84286	0.00000	3475.52300
0.84668	0.00000	3475.52300
0.85050	0.00000	3473.68400
0.85433	0.00000	3473.68400
0.85814	0.00000	3473.68400
0.86197	0.00000	3473.68400
0.86579	0.00000	3473.68400
0.86962	0.00000	3475.26100
0.87344	0.00000	3475.26100
0.87728	0.00000	3475.26100
0.88110	0.00000	3475.26100
0.88493	0.00000	3473.68400
0.88876	0.00000	3473.68400
0.89259	0.00000	3473.68400
0.89642	0.00000	3473.68400
0.90024	0.00000	3473.68400
0.90407	0.00000	3471.95800
0.90789	0.00000	3471.95800
0.91172	0.00000	3471.95800
0.91553	0.00000	3471.95800
0.91936	0.00000	3477.01100
0.92319	0.00000	3477.01100
0.92701	0.00000	3477.01100
0.93083	0.00000	3477.01100
0.93466	0.00000	3477.01100
0.93848	0.00000	3468.39300
0.94230	0.00000	3468.39300
0.94613	0.00000	3468.39300
0.94995	0.00000	3468.39300
0.95378	0.00000	3473.41900
0.95760	0.00000	3473.41900
0.96142	0.00000	3473.41900
0.96524	0.00000	3473.41900
0.96907	0.00000	3473.41900
0.97290	0.00000	3475.26100
0.97672	0.00000	3475.26100
0.98055	0.00000	3475.26100
0.98438	0.00000	3475.26100
0.98820	0.00000	3466.50700
0.99203	0.00000	3466.50700
0.99586	0.00000	3466.50700
0.99968	0.00000	3466.50700
1.00351	0.00000	3466.50700
1.00734	0.00000	3471.95800
1.01116	0.00000	3471.95800
1.01498	0.00000	3471.95800
1.01880	0.00000	3471.95800
1.02262	0.00000	3462.64300
1.02645	0.00000	3462.64300
1.03028	0.00000	3462.64300
1.03411	0.00000	3462.64300
1.03793	0.00000	3462.64300
1.04176	0.00000	3471.69300
1.04559	0.00000	3471.69300
1.04942	0.00000	3471.69300
1.05324	0.00000	3471.69300
1.05706	0.00000	3473.41900
1.06088	0.00000	3473.41900
1.06470	0.00000	3473.41900
1.06853	0.00000	3473.41900
1.07235	0.00000	3473.41900
1.07618	0.00000	3461.26400
1.08000	0.00000	3461.26400
1.08383	0.00000	3461.26400
1.08766	0.00000	3461.26400
1.09147	0.00000	3469.55800
1.09530	0.00000	3469.55800
1.09912	0.00000	3469.55800
1.10295	0.00000	3469.55800
1.10677	0.00000	3469.55800
1.11059	0.00000	3471.69300
1.11441	0.00000	3471.69300
1.11824	0.00000	3471.69300
1.12206	0.00000	3471.69300
1.12588	0.00000	3469.82700
1.12970	0.00000	3469.82700
1.13353	0.00000	3469.82700
1.13736	0.00000	3469.82700
1.14118	0.00000	3469.82700
1.14501	0.00000	3468.39300
1.14884	0.00000	3468.39300
1.15267	0.00000	3468.39300
1.15650	0.00000	3468.39300
1.16032	0.00000	3469.82700
1.16415	0.00000	3469.82700
1.16798	0.00000	3469.82700
1.17181	0.00000	3469.82700
1.17563	0.00000	3469.82700
1.17946	0.00000	3471.42800
1.18329	0.00000	3471.42800
1.18711	0.00000	3471.42800
1.19094	0.00000	3471.42800
1.19477	0.00000	3469.82700
1.19859	0.00000	3469.82700
1.20242	0.00000	3469.82700
1.20624	0.00000	3469.82700
1.21007	0.00000	3469.82700
1.21388	0.00000	3464.55700
1.21771	0.00000	3464.55700
1.22153	0.00000	3464.55700
1.22535	0.00000	3464.55700
1.22918	0.00000	3477.01100
1.23300	0.00000	3477.01100
1.23682	0.00000	3477.01100
1.24064	0.00000	3477.01100
1.24446	0.00000	3477.01100
1.24829	0.00000	3471.69300
1.25212	0.00000	3471.69300
1.25594	0.00000	3471.69300
1.25977	0.00000	3471.69300
1.26360	0.00000	3470.09500
1.26743	0.00000	3470.09500
1.27125	0.00000	3470.09500
1.27507	0.00000	3470.09500
1.27890	0.00000	3470.09500
1.28272	0.00000	3471.16200
1.28655	0.00000	3471.16200
1.29041	0.00000	3471.16200
1.29424	0.00000	3471.16200
1.29807	0.00000	3466.23500
1.30188	0.00000	3466.23500
1.30570	0.00000	3466.23500
1.30953	0.00000	3466.23500
1.31335	0.00000	3466.23500
1.31718	0.00000	3474.73700
1.32100	0.00000	3474.73700
1.32483	0.00000	3474.73700
1.32866	0.00000	3474.73700
1.33249	0.00000	3473.41900
1.33631	0.00000	3473.41900
1.34014	0.00000	3473.41900
1.34396	0.00000	3473.41900
1.34779	0.00000	3473.41900
1.35161	0.00000	3470.63000
1.35544	0.00000	3470.63000
1.35926	0.00000	3470.63000
1.36308	0.00000	3470.63000
1.36690	0.00000	3473.68400
1.37073	0.00000	3473.68400
1.37455	0.00000	3473.68400
1.37838	0.00000	3473.68400
1.38220	0.00000	3473.68400
1.38602	0.00000	3477.79300
1.38984	0.00000	3477.79300
1.39367	0.00000	3477.79300
1.39750	0.00000	3477.79300
1.40132	0.00000	3473.41900
1.40515	0.00000	3473.41900
1.40897	0.00000	3473.41900
1.41279	0.00000	3473.41900
1.41661	0.00000	3473.41900
1.42044	0.00000	3470.63000
1.42427	0.00000	3470.63000
1.42809	0.00000	3470.63000
1.43192	0.00000	3470.63000
1.43575	0.00000	3473.68400
1.43958	0.00000	3473.68400
1.44340	0.00000	3473.68400
1.44723	0.00000	3473.68400
1.45105	0.00000	3470.09500
1.45487	0.00000	3470.09500
1.45869	0.00000	3470.09500
1.46251	0.00000	3470.09500
1.46633	0.00000	3470.09500
1.47016	0.00000	3473.94800
1.47398	0.00000	3473.94800
1.47781	0.00000	3473.94800
1.48164	0.00000	3473.94800
1.48546	0.00000	3473.68400
1.48928	0.00000	3473.68400
1.49311	0.00000	3473.68400
1.49693	0.00000	3473.68400
1.50076	0.00000	3473.68400
1.50458	0.00000	3473.94800
1.50841	0.00000	3473.94800
1.51223	0.00000	3473.94800
1.51605	0.00000	3473.94800
1.51988	0.00000	3477.27200
1.52371	0.00000	3477.27200
1.52753	0.00000	3477.27200
1.53135	0.00000	3477.27200
1.53518	0.00000	3477.27200
1.53901	0.00000	3470.36300
1.54284	0.00000	3470.36300
1.54666	0.00000	3470.36300
1.55049	0.00000	3470.36300
1.55432	0.00000	3473.68400
1.55815	0.00000	3473.68400
1.56198	0.00000	3473.68400
1.56580	0.00000	3473.68400
1.56963	0.00000	3473.68400
1.57346	0.00000	3470.36300
1.57728	0.00000	3470.36300
1.58111	0.00000	3470.36300
1.58494	0.00000	3470.36300
1.58877	0.00000	3477.01100
1.59261	0.00000	3477.01100
1.59644	0.00000	3477.01100
1.60026	0.00000	3477.01100
1.60408	0.00000	3477.01100
1.60790	0.00000	3475.00000
1.61174	0.00000	3475.00000
1.61555	0.00000	3475.00000
1.61937	0.00000	3475.00000
1.62320	0.00000	3470.36300
1.62702	0.00000	3470.36300
1.63085	0.00000	3470.36300
1.63468	0.00000	3470.36300
1.63850	0.00000	3470.36300
1.64234	0.00000	3478.05300
1.64616	0.00000	3478.05300
1.64999	0.00000	3478.05300
1.65381	0.00000	3478.05300
1.65764	0.00000	3473.41900
1.66147	0.00000	3473.41900
1.66529	0.00000	3473.41900
1.66912	0.00000	3473.41900
1.67294	0.00000	3473.41900
1.67678	0.00000	3471.69300
1.68061	0.00000	3471.69300
1.68443	0.00000	3471.69300
1.68825	0.00000	3471.69300
1.69208	0.00000	3470.09500
1.69591	0.00000	3470.09500
1.69973	0.00000	3470.09500
1.70356	0.00000	3470.09500
1.70740	0.00000	3470.09500
1.71123	0.00000	3475.26100
1.71505	0.00000	3475.26100
1.71887	0.00000	3475.26100
1.72270	0.00000	3475.26100
1.72652	0.00000	3470.09500
1.73034	0.00000	3470.09500
1.73417	0.00000	3470.09500
1.73799	0.00000	3470.09500
1.74181	0.00000	3470.09500
1.74564	0.00000	3471.95800
1.74947	0.00000	3471.95800
1.75329	0.00000	3471.95800
1.75712	0.00000	3471.95800
1.76094	0.00000	3473.41900
1.76477	0.00000	3473.41900
1.76860	0.00000	3473.41900
1.77242	0.00000	3473.41900
1.77625	0.00000	3473.41900
1.78007	0.00000	3471.42800
1.78390	0.00000	3471.42800
1.78772	0.00000	3471.42800
1.79158	0.00000	3471.42800
1.79541	0.00000	3470.09500
1.79924	0.00000	3470.09500
1.80307	0.00000	3470.09500
1.80689	0.00000	3470.09500
1.81072	0.00000	3470.09500
1.81454	0.00000	3471.69300
1.81837	0.00000	3471.69300
1.82220	0.00000	3471.69300
1.82602	0.00000	3471.69300
1.82984	0.00000	3477.01100
1.83367	0.00000	3477.01100
1.83750	0.00000	3477.01100
1.84133	0.00000	3477.01100
1.84516	0.00000	3477.01100
1.84899	0.00000	3471.95800
1.85283	0.00000	3471.95800
1.85665	0.00000	3471.95800
1.86047	0.00000	3471.95800
1.86429	0.00000	3470.09500
1.86812	0.00000	3470.09500
1.87192	0.00000	3470.09500
1.87576	0.00000	3470.09500
1.87960	0.00000	3470.09500
1.88342	0.00000	3471.95800
1.88725	0.00000	3471.95800
1.89107	0.00000	3471.95800
1.89490	0.00000	3471.95800
1.89872	0.00000	3469.82700
1.90255	0.00000	3469.82700
1.90637	0.00000	3469.82700
1.91020	0.00000	3469.82700
1.91402	0.00000	3469.82700
1.91785	0.00000	3468.12500
1.92167	0.00000	3468.12500
1.92550	0.00000	3468.12500
1.92932	0.00000	3468.12500
1.93315	0.00000	3473.41900
1.93698	0.00000	3473.41900
1.94081	0.00000	3473.41900
1.94463	0.00000	3473.41900
1.94845	0.00000	3473.41900
1.95228	0.00000	3471.69300
1.95610	0.00000	3471.69300
1.95992	0.00000	3471.69300
1.96374	0.00000	3471.69300
1.96757	0.00000	3470.09500
1.97139	0.00000	3470.09500
1.97522	0.00000	3470.09500
1.97904	0.00000	3470.09500
1.98287	0.00000	3470.09500
1.98669	0.00000	3475.52300
1.99051	0.00000	3475.52300
1.99434	0.00000	3475.52300
1.99817	0.00000	3475.52300
2.00199	0.00000	3462.64300
2.00582	0.00000	3462.64300
2.00966	0.00000	3462.64300
2.01348	0.00000	3462.64300
2.01730	0.00000	3462.64300
2.02112	0.00000	3471.95800
2.02495	0.00000	3471.95800
2.02877	0.00000	3471.95800
2.03260	0.00000	3471.95800
2.03642	0.00000	3470.36300
2.04025	0.00000	3470.36300
2.04408	0.00000	3470.36300
2.04790	0.00000	3470.36300
2.05172	0.00000	3470.36300
2.05555	0.00000	3468.12500
2.05939	0.00000	3468.12500
2.06322	0.00000	3468.12500
2.06705	0.00000	3468.12500
2.07088	0.00000	3473.41900
2.07471	0.00000	3473.41900
2.07854	0.00000	3473.41900
2.08236	0.00000	3473.41900
2.08618	0.00000	3473.41900
2.09001	0.00000	3468.39300
2.09383	0.00000	3468.39300
2.09765	0.00000	3468.39300
2.10148	0.00000	3468.39300
2.10530	0.00000	3473.68400
2.10913	0.00000	3473.68400
2.11295	0.00000	3473.68400
2.11679	0.00000	3473.68400
2.12061	0.00000	3473.68400
2.12444	0.00000	3471.95800
2.12826	0.00000	3471.95800
2.13208	0.00000	3471.95800
2.13591	0.00000	3471.95800
2.13973	0.00000	3477.01100
2.14356	0.00000	3477.01100
2.14738	0.00000	3477.01100
2.15120	0.00000	3477.01100
2.15503	0.00000	3477.01100
2.15885	0.00000	3471.95800
2.16268	0.00000	3471.95800
2.16650	0.00000	3471.95800
2.17032	0.00000	3471.95800
2.17415	0.00000	3477.01100
2.17797	0.00000	3477.01100
2.18179	0.00000	3477.01100
2.18562	0.00000	3477.01100
2.18944	0.00000	3477.01100
2.19328	0.00000	3472.22200
2.19710	0.00000	3472.22200
2.20093	0.00000	3472.22200
2.20476	0.00000	3472.22200
2.20859	0.00000	3470.09500
2.21242	0.00000	3470.09500
2.21625	0.00000	3470.09500
2.22007	0.00000	3470.09500
2.22390	0.00000	3470.09500
2.22772	0.00000	3468.12500
2.23154	0.00000	3468.12500
2.23537	0.00000	3468.12500
2.23919	0.00000	3468.12500
2.24302	0.00000	3473.41900
2.24685	0.00000	3473.41900
2.25066	0.00000	3473.41900
2.25449	0.00000	3473.41900
2.25831	0.00000	3473.41900
2.26214	0.00000	3464.82800
2.26596	0.00000	3464.82800
2.26978	0.00000	3464.82800
2.27360	0.00000	3464.82800
2.27743	0.00000	3473.41900
2.28125	0.00000	3473.41900
2.28508	0.00000	3473.41900
2.28890	0.00000	3473.41900
2.29276	0.00000	3473.41900
2.29661	0.00000	3475.26100
2.30043	0.00000	3475.26100
2.30426	0.00000	3475.26100
2.30808	0.00000	3475.26100
2.31190	0.00000	3469.82700
2.31573	0.00000	3469.82700
2.31955	0.00000	3469.82700
2.32337	0.00000	3469.82700
2.32720	0.00000	3469.82700
2.33102	0.00000	3475.26100
2.33484	0.00000	3475.26100
2.33867	0.00000	3475.26100
2.34249	0.00000	3475.26100
2.34632	0.00000	3470.09500
2.35014	0.00000	3470.09500
2.35396	0.00000	3470.09500
2.35779	0.00000	3470.09500
2.36160	0.00000	3470.09500
2.36542	0.00000	3468.39300
2.36925	0.00000	3468.39300
2.37308	0.00000	3468.39300
2.37694	0.00000	3468.39300
2.38078	0.00000	3473.68400
2.38462	0.00000	3473.68400
2.38846	0.00000	3473.68400
2.39228	0.00000	3473.68400
2.39611	0.00000	3473.68400
2.39994	0.00000	3471.42800
2.40377	0.00000	3471.42800
2.40760	0.00000	3471.42800
2.41142	0.00000	3471.42800
2.41525	0.00000	3473.41900
2.41907	0.00000	3473.41900
2.42290	0.00000	3473.41900
2.42672	0.00000	3473.41900
2.43055	0.00000	3473.41900
2.43437	0.00000	3475.00000
2.43820	0.00000	3475.00000
2.44203	0.00000	3475.00000
2.44586	0.00000	3475.00000
2.44969	0.00000	3469.55800
2.45351	0.00000	3469.55800
2.45733	0.00000	3469.55800
2.46116	0.00000	3469.55800
2.46498	0.00000	3469.55800
2.46880	0.00000	3467.31800
2.47263	0.00000	3467.31800
2.47646	0.00000	3467.31800
2.48028	0.00000	3467.31800
2.48411	0.00000	3469.82700
2.48793	0.00000	3469.82700
2.49176	0.00000	3469.82700
2.49559	0.00000	3469.82700
2.49941	0.00000	3469.82700
2.50323	0.00000	3471.16200
2.50706	0.00000	3471.16200
2.51089	0.00000	3471.16200
2.51472	0.00000	3471.16200
2.51854	0.00000	3466.50700
2.52236	0.00000	3466.50700
2.52619	0.00000	3466.50700
2.53002	0.00000	3466.50700
2.53385	0.00000	3466.50700
2.53767	0.00000	3470.63000
2.54149	0.00000	3470.63000
2.54532	0.00000	3470.63000
2.54914	0.00000	3470.63000
2.55296	0.00000	3469.82700
2.55678	0.00000	3469.82700
2.56061	0.00000	3469.82700
2.56444	0.00000	3469.82700
2.56826	0.00000	3466.50700
2.57208	0.00000	3466.50700
2.57590	0.00000	3466.50700
2.57973	0.00000	3466.50700
2.58355	0.00000	3466.50700
2.58738	0.00000	3466.50700
2.59120	0.00000	3466.50700
2.59502	0.00000	3466.50700
2.59885	0.00000	3466.50700
2.60267	0.00000	3469.82700
2.60649	0.00000	3469.82700
2.61031	0.00000	3469.82700
2.61414	0.00000	3469.82700
2.61796	0.00000	3469.82700
2.62178	0.00000	3466.77800
2.62561	0.00000	3466.77800
2.62944	0.00000	3466.77800
2.63326	0.00000	3466.77800
2.63709	0.00000	3469.82700
2.64091	0.00000	3469.82700
2.64474	0.00000	3469.82700
2.64857	0.00000	3469.82700
2.65239	0.00000	3469.82700
2.65622	0.00000	3466.77800
2.66004	0.00000	3466.77800
2.66386	0.00000	3466.77800
2.66769	0.00000	3466.77800
2.67152	0.00000	3469.82700
2.67534	0.00000	3469.82700
2.67918	0.00000	3469.82700
2.68300	0.00000	3469.82700
2.68683	0.00000	3469.82700
2.69065	0.00000	3473.94800
2.69448	0.00000	3473.94800
2.69831	0.00000	3473.94800
2.70214	0.00000	3473.94800
2.70597	0.00000	3469.55800
2.70981	0.00000	3469.55800
2.71363	0.00000	3469.55800
2.71745	0.00000	3469.55800
2.72128	0.00000	3469.55800
2.72510	0.00000	3471.16200
2.72894	0.00000	3471.16200
2.73276	0.00000	3471.16200
2.73660	0.00000	3471.16200
2.74042	0.00000	3469.82700
2.74426	0.00000	3469.82700
2.74809	0.00000	3469.82700
2.75191	0.00000	3469.82700
2.75573	0.00000	3469.82700
2.75955	0.00000	3468.12500
2.76338	0.00000	3468.12500
2.76721	0.00000	3468.12500
2.77104	0.00000	3468.12500
2.77487	0.00000	3469.82700
2.77871	0.00000	3469.82700
2.78254	0.00000	3469.82700
2.78637	0.00000	3469.82700
2.79020	0.00000	3469.82700
2.79405	0.00000	3468.39300
2.79788	0.00000	3468.39300
2.80170	0.00000	3468.39300
2.80553	0.00000	3468.39300
2.80935	0.00000	3469.82700
2.81319	0.00000	3469.82700
2.81701	0.00000	3469.82700
2.82083	0.00000	3469.82700
2.82466	0.00000	3469.82700
2.82849	0.00000	3468.12500
2.83231	0.00000	3468.12500
2.83614	0.00000	3468.12500
2.83996	0.00000	3468.12500
2.84379	0.00000	3466.23500
2.84761	0.00000	3466.23500
2.85144	0.00000	3466.23500
2.85526	0.00000	3466.23500
2.85909	0.00000	3466.23500
2.86293	0.00000	3467.85700
2.86675	0.00000	3467.85700
2.87057	0.00000	3467.85700
2.87440	0.00000	3467.85700
2.87825	0.00000	3466.50700
2.88209	0.00000	3466.50700
2.88593	0.00000	3466.50700
2.88976	0.00000	3466.50700
2.89359	0.00000	3466.50700
2.89742	0.00000	3468.39300
2.90124	0.00000	3468.39300
2.90507	0.00000	3468.39300
2.90890	0.00000	3468.39300
2.91273	0.00000	3469.82700
2.91655	0.00000	3469.82700
2.92038	0.00000	3469.82700
2.92420	0.00000	3469.82700
2.92802	0.00000	3469.82700
2.93185	0.00000	3468.12500
2.93567	0.00000	3468.12500
2.93949	0.00000	3468.12500
2.94331	0.00000	3468.12500
2.94714	0.00000	3473.41900
2.95096	0.00000	3473.41900
2.95479	0.00000	3473.41900
2.95862	0.00000	3473.41900
2.96244	0.00000	3473.41900
2.96627	0.00000	3475.26100
2.97009	0.00000	3475.26100
2.97388	0.00000	3475.26100
2.97769	0.00000	3475.26100
2.98151	0.00000	3470.09500
2.98535	0.00000	3470.09500
2.98918	0.00000	3470.09500
2.99301	0.00000	3470.09500
2.99684	0.00000	3470.09500
3.00066	0.00000	3471.69300
3.00449	0.00000	3471.69300
3.00831	0.00000	3471.69300
3.01214	0.00000	3471.69300
3.01597	0.00000	3469.55800
3.01979	0.00000	3469.55800
3.02362	0.00000	3469.55800
3.02744	0.00000	3469.55800
3.03127	0.00000	3469.55800
3.03510	0.00000	3471.95800
3.03892	0.00000	3471.95800
3.04275	0.00000	3471.95800
3.04657	0.00000	3471.95800
3.05040	0.00000	3473.41900
3.05423	0.00000	3473.41900
3.05805	0.00000	3473.41900
3.06187	0.00000	3473.41900
3.06570	0.00000	3473.41900
3.06952	0.00000	3468.39300
3.07335	0.00000	3468.39300
3.07717	0.00000	3468.39300
3.08100	0.00000	3468.39300
3.08483	0.00000	3473.41900
3.08865	0.00000	3473.41900
3.09248	0.00000	3473.41900
3.09631	0.00000	3473.41900
3.10013	0.00000	3473.41900
3.10395	0.00000	3467.85700
3.10777	0.00000	3467.85700
3.11159	0.00000	3467.85700
3.11543	0.00000	3467.85700
3.11925	0.00000	3470.09500
3.12307	0.00000	3470.09500
3.12690	0.00000	3470.09500
3.13073	0.00000	3470.09500
3.13456	0.00000	3470.09500
3.13838	0.00000	3471.95800
3.14220	0.00000	3471.95800
3.14603	0.00000	3471.95800
3.14986	0.00000	3471.95800
3.15369	0.00000	3469.82700
3.15750	0.00000	3469.82700
3.16132	0.00000	3469.82700
3.16515	0.00000	3469.82700
3.16898	0.00000	3469.82700
3.17280	0.00000	3468.39300
3.17662	0.00000	3468.39300
3.18045	0.00000	3468.39300
3.18427	0.00000	3468.39300
3.18810	0.00000	3470.09500
3.19192	0.00000	3470.09500
3.19575	0.00000	3470.09500
3.19958	0.00000	3470.09500
3.20341	0.00000	3470.09500
3.20724	0.00000	3471.95800
3.21106	0.00000	3471.95800
3.21489	0.00000	3471.95800
3.21871	0.00000	3471.95800
3.22254	0.00000	3473.41900
3.22637	0.00000	3473.41900
3.23019	0.00000	3473.41900
3.23401	0.00000	3473.41900
3.23784	0.00000	3473.41900
3.24166	0.00000	3468.39300
3.24549	0.00000	3468.39300
3.24932	0.00000	3468.39300
3.25314	0.00000	3468.39300
3.25697	0.00000	3473.68400
3.26079	0.00000	3473.68400
3.26463	0.00000	3473.68400
3.26845	0.00000	3473.68400
3.27228	0.00000	3473.68400
3.27610	0.00000	3471.95800
3.27992	0.00000	3471.95800
3.28375	0.00000	3471.95800
3.28757	0.00000	3471.95800
3.29139	0.00000	3473.41900
3.29525	0.00000	3473.41900
3.29909	0.00000	3473.41900
3.30292	0.00000	3473.41900
3.30675	0.00000	3473.41900
3.31057	0.00000	3475.26100
3.31440	0.00000	3475.26100
3.31821	0.00000	3475.26100
3.32204	0.00000	3475.26100
3.32586	0.00000	3473.41900
3.32969	0.00000	3473.41900
3.33351	0.00000	3473.41900
3.33733	0.00000	3473.41900
3.34115	0.00000	3473.41900
3.34499	0.00000	3471.69300
3.34882	0.00000	3471.69300
3.35263	0.00000	3471.69300
3.35646	0.00000	3471.69300
3.36028	0.00000	3477.27200
3.36411	0.00000	3477.27200
3.36794	0.00000	3477.27200
3.37177	0.00000	3477.27200
3.37559	0.00000	3477.27200
3.37942	0.00000	3475.52300
3.38325	0.00000	3475.52300
3.38708	0.00000	3475.52300
3.39091	0.00000	3475.52300
3.39473	0.00000	3477.27200
3.39855	0.00000	3477.27200
3.40237	0.00000	3477.27200
3.40619	0.00000	3477.27200
3.41001	0.00000	3477.27200
3.41383	0.00000	3475.52300
3.41766	0.00000	3475.52300
3.42149	0.00000	3475.52300
3.42532	0.00000	3475.52300
3.42915	0.00000	3477.27200
3.43297	0.00000	3477.27200
3.43680	0.00000	3477.27200
3.44063	0.00000	3477.27200
3.44446	0.00000	3477.27200
3.44828	0.00000	3475.52300
3.45211	0.00000	3475.52300
3.45594	0.00000	3475.52300
3.45977	0.00000	3475.52300
3.46360	0.00000	3477.27200
3.46742	0.00000	3477.27200
3.47125	0.00000	3477.27200
3.47507	0.00000	3477.27200
3.47889	0.00000	3477.27200
3.48271	0.00000	3475.26100
3.48654	0.00000	3475.26100
3.49036	0.00000	3475.26100
3.49419	0.00000	3475.26100
3.49801	0.00000	3470.09500
3.50184	0.00000	3470.09500
3.50568	0.00000	3470.09500
3.50951	0.00000	3470.09500
3.51333	0.00000	3470.09500
3.51715	0.00000	3479.08700
3.52098	0.00000	3479.08700
3.52480	0.00000	3479.08700
3.52862	0.00000	3479.08700
3.53244	0.00000	3477.53300
3.53627	0.00000	3477.53300
3.54010	0.00000	3477.53300
3.54393	0.00000	3477.53300
3.54776	0.00000	3477.53300
3.55158	0.00000	3478.57100
3.55540	0.00000	3478.57100
3.55923	0.00000	3478.57100
3.56305	0.00000	3478.57100
3.56688	0.00000	3480.86100
3.57070	0.00000	3480.86100
3.57452	0.00000	3480.86100
3.57835	0.00000	3480.86100
3.58218	0.00000	3480.86100
3.58600	0.00000	3478.57100
3.58983	0.00000	3478.57100
3.59366	0.00000	3478.57100
3.59748	0.00000	3478.57100
3.60131	0.00000	3484.70300
3.60514	0.00000	3484.70300
3.60896	0.00000	3484.70300
3.61278	0.00000	3484.70300
3.61661	0.00000	3484.70300
3.62043	0.00000	3475.26100
3.62426	0.00000	3475.26100
3.62809	0.00000	3475.26100
3.63191	0.00000	3475.26100
3.63574	0.00000	3481.37500
3.63956	0.00000	3481.37500
3.64338	0.00000	3481.37500
3.64721	0.00000	3481.37500
3.65102	0.00000	3481.37500
3.65484	0.00000	3482.39700
3.65867	0.00000	3482.39700
3.66250	0.00000	3482.39700
3.66632	0.00000	3482.39700
3.67014	0.00000	3481.11800
3.67397	0.00000	3481.11800
3.67780	0.00000	3481.11800
3.68162	0.00000	3481.11800
3.68545	0.00000	3481.11800
3.68928	0.00000	3482.39700
3.69310	0.00000	3482.39700
3.69693	0.00000	3482.39700
3.70076	0.00000	3482.39700
3.70458	0.00000	3484.95700
3.70841	0.00000	3484.95700
3.71225	0.00000	3484.95700
3.71607	0.00000	3484.95700
3.71989	0.00000	3484.95700
3.72372	0.00000	3479.08700
3.72755	0.00000	3479.08700
3.73138	0.00000	3479.08700
3.73520	0.00000	3479.08700
3.73903	0.00000	3484.95700
3.74285	0.00000	3484.95700
3.74667	0.00000	3484.95700
3.75051	0.00000	3484.95700
3.75433	0.00000	3484.95700
3.75816	0.00000	3486.21600
3.76198	0.00000	3486.21600
3.76588	0.00000	3486.21600
3.76973	0.00000	3486.21600
3.77356	0.00000	3488.53800
3.77739	0.00000	3488.53800
3.78123	0.00000	3488.53800
3.78506	0.00000	3488.53800
3.78888	0.00000	3488.53800
3.79272	0.00000	3489.78100
3.79658	0.00000	3489.78100
3.80041	0.00000	3489.78100
3.80425	0.00000	3489.78100
3.80808	0.00000	3481.11800
3.81192	0.00000	3481.11800
3.81575	0.00000	3481.11800
3.81957	0.00000	3481.11800
3.82339	0.00000	3481.11800
3.82721	0.00000	3489.78100
3.83104	0.00000	3489.78100
3.83486	0.00000	3489.78100
3.83869	0.00000	3489.78100
3.84251	0.00000	3488.53800
3.84634	0.00000	3488.53800
3.85016	0.00000	3488.53800
3.85399	0.00000	3488.53800
3.85781	0.00000	3488.53800
3.86163	0.00000	3489.53300
3.86546	0.00000	3489.53300
3.86928	0.00000	3489.53300
3.87311	0.00000	3489.53300
3.87698	0.00000	3492.12000
3.88086	0.00000	3492.12000
3.88470	0.00000	3492.12000
3.88854	0.00000	3492.12000
3.89237	0.00000	3492.12000
3.89619	0.00000	3488.78800
3.90002	0.00000	3488.78800
3.90385	0.00000	3488.78800
3.90768	0.00000	3488.78800
3.91151	0.00000	3485.46200
3.91533	0.00000	3485.46200
3.91915	0.00000	3485.46200
3.92298	0.00000	3485.46200
3.92680	0.00000	3485.46200
3.93062	0.00000	3493.34600
3.93443	0.00000	3493.34600
3.93826	0.00000	3493.34600
3.94210	0.00000	3493.34600
3.94593	0.00000	3485.21000
3.94975	0.00000	3485.21000
3.95357	0.00000	3485.21000
3.95740	0.00000	3485.21000
3.96122	0.00000	3485.21000
3.96504	0.00000	3489.78100
3.96887	0.00000	3489.78100
3.97269	0.00000	3489.78100
3.97652	0.00000	3489.78100
3.98034	0.00000	3492.12000
3.98417	0.00000	3492.12000
3.98800	0.00000	3492.12000
3.99182	0.00000	3492.12000
3.99564	0.00000	3492.12000
3.99947	0.00000	3486.71700
4.00329	0.00000	3486.71700
4.00712	0.00000	3486.71700
4.01095	0.00000	3486.71700
4.01477	0.00000	3495.94400
4.01859	0.00000	3495.94400
4.02242	0.00000	3495.94400
4.02623	0.00000	3495.94400
4.03005	0.00000	3495.94400
4.03387	0.00000	3490.27500
4.03770	0.00000	3490.27500
4.04152	0.00000	3490.27500
4.04534	0.00000	3490.27500
4.04916	0.00000	3488.53800
4.05299	0.00000	3488.53800
4.05681	0.00000	3488.53800
4.06064	0.00000	3488.53800
4.06446	0.00000	3488.53800
4.06828	0.00000	3493.83300
4.07210	0.00000	3493.83300
4.07593	0.00000	3493.83300
4.07975	0.00000	3493.83300
4.08357	0.00000	3488.78800
4.08740	0.00000	3488.78800
4.09122	0.00000	3488.78800
4.09505	0.00000	3488.78800
4.09888	0.00000	3488.78800
4.10271	0.00000	3490.52100
4.10653	0.00000	3490.52100
4.11035	0.00000	3490.52100
4.11418	0.00000	3490.52100
4.11800	0.00000	3492.36600
4.12183	0.00000	3492.36600
4.12565	0.00000	3492.36600
4.12948	0.00000	3492.36600
4.13329	0.00000	3492.36600
4.13714	0.00000	3487.21500
4.14096	0.00000	3487.21500
4.14479	0.00000	3487.21500
4.14862	0.00000	3487.21500
4.15244	0.00000	3492.36600
4.15627	0.00000	3492.36600
4.16010	0.00000	3492.36600
4.16392	0.00000	3492.36600
4.16774	0.00000	3492.36600
4.17157	0.00000	3490.52100
4.17539	0.00000	3490.52100
4.17922	0.00000	3490.52100
4.18304	0.00000	3490.52100
4.18686	0.00000	3488.78800
4.19068	0.00000	3488.78800
4.19450	0.00000	3488.78800
4.19833	0.00000	3488.78800
4.20216	0.00000	3488.78800
4.20599	0.00000	3494.07600
4.20981	0.00000	3494.07600
4.21363	0.00000	3494.07600
4.21747	0.00000	3494.07600
4.22129	0.00000	3492.61200
4.22512	0.00000	3492.61200
4.22894	0.00000	3492.61200
4.23277	0.00000	3492.61200
4.23659	0.00000	3492.61200
4.24041	0.00000	3486.96600
4.24423	0.00000	3486.96600
4.24805	0.00000	3486.96600
4.25188	0.00000	3486.96600
4.25570	0.00000	3492.61200
4.25953	0.00000	3492.61200
4.26339	0.00000	3492.61200
4.26724	0.00000	3492.61200
4.27107	0.00000	3492.61200
4.27490	0.00000	3490.27500
4.27872	0.00000	3490.27500
4.28255	0.00000	3490.27500
4.28638	0.00000	3490.27500
4.29020	0.00000	3492.12000
4.29402	0.00000	3492.12000
4.29785	0.00000	3492.12000
4.30170	0.00000	3492.12000
4.30552	0.00000	3492.12000
4.30936	0.00000	3494.07600
4.31321	0.00000	3494.07600
4.31705	0.00000	3494.07600
4.32087	0.00000	3494.07600
4.32470	0.00000	3488.78800
4.32852	0.00000	3488.78800
4.33234	0.00000	3488.78800
4.33617	0.00000	3488.78800
4.34000	0.00000	3488.78800
4.34382	0.00000	3494.31800
4.34765	0.00000	3494.31800
4.35148	0.00000	3494.31800
4.35530	0.00000	3494.31800
4.35912	0.00000	3492.61200
4.36294	0.00000	3492.61200
4.36677	0.00000	3492.61200
4.37063	0.00000	3492.61200
4.37448	0.00000	3492.61200
4.37830	0.00000	3490.76600
4.38213	0.00000	3490.76600
4.38596	0.00000	3490.76600
4.38978	0.00000	3490.76600
4.39360	0.00000	3492.36600
4.39742	0.00000	3492.36600
4.40125	0.00000	3492.36600
4.40508	0.00000	3492.36600
4.40891	0.00000	3492.36600
4.41273	0.00000	3494.07600
4.41656	0.00000	3494.07600
4.42038	0.00000	3494.07600
4.42420	0.00000	3494.07600
4.42802	0.00000	3488.53800
4.43185	0.00000	3488.53800
4.43567	0.00000	3488.53800
4.43950	0.00000	3488.53800
4.44332	0.00000	3488.53800
4.44714	0.00000	3490.76600
4.45096	0.00000	3490.76600
4.45479	0.00000	3490.76600
4.45862	0.00000	3490.76600
4.46244	0.00000	3492.61200
4.46626	0.00000	3492.61200
4.47008	0.00000	3492.61200
4.47387	0.00000	3492.61200
4.47770	0.00000	3492.61200
4.48152	0.00000	3486.96600
4.48535	0.00000	3486.96600
4.48917	0.00000	3486.96600
4.49298	0.00000	3486.96600
4.49680	0.00000	3492.36600
4.50064	0.00000	3492.36600
4.50447	0.00000	3492.36600
4.50829	0.00000	3492.36600
4.51212	0.00000	3492.36600
4.51595	0.00000	3490.52100
4.51977	0.00000	3490.52100
4.52360	0.00000	3490.52100
4.52742	0.00000	3490.52100
4.53124	0.00000	3492.36600
4.53506	0.00000	3492.36600
4.53889	0.00000	3492.36600
4.54271	0.00000	3492.36600
4.54654	0.00000	3492.36600
4.55036	0.00000	3487.21500
4.55419	0.00000	3487.21500
4.55801	0.00000	3487.21500
4.56184	0.00000	3487.21500
4.56566	0.00000	3492.61200
4.56948	0.00000	3492.61200
4.57330	0.00000	3492.61200
4.57713	0.00000	3492.61200
4.58096	0.00000	3492.61200
4.58478	0.00000	3486.96600
4.58860	0.00000	3486.96600
4.59242	0.00000	3486.96600
4.59624	0.00000	3486.96600
4.60006	0.00000	3484.95700
4.60389	0.00000	3484.95700
4.60771	0.00000	3484.95700
4.61154	0.00000	3484.95700
4.61535	0.00000	3484.95700
4.61917	0.00000	3493.83300
4.62300	0.00000	3493.83300
4.62681	0.00000	3493.83300
4.63064	0.00000	3493.83300
4.63446	0.00000	3492.12000
4.63830	0.00000	3492.12000
4.64212	0.00000	3492.12000
4.64594	0.00000	3492.12000
4.64977	0.00000	3492.12000
4.65359	0.00000	3489.78100
4.65741	0.00000	3489.78100
4.66124	0.00000	3489.78100
4.66506	0.00000	3489.78100
4.66889	0.00000	3488.78800
4.67272	0.00000	3488.78800
4.67655	0.00000	3488.78800
4.68037	0.00000	3488.78800
4.68419	0.00000	3488.78800
4.68801	0.00000	3490.02800
4.69184	0.00000	3490.02800
4.69566	0.00000	3490.02800
4.69948	0.00000	3490.02800
4.70331	0.00000	3488.53800
4.70713	0.00000	3488.53800
4.71095	0.00000	3488.53800
4.71477	0.00000	3488.53800
4.71860	0.00000	3488.53800
4.72242	0.00000	3489.28500
4.72625	0.00000	3489.28500
4.73008	0.00000	3489.28500
4.73388	0.00000	3489.28500
4.73770	0.00000	3488.53800
4.74152	0.00000	3488.53800
4.74535	0.00000	3488.53800
4.74917	0.00000	3488.53800
4.75300	0.00000	3488.53800
4.75683	0.00000	3489.03700
4.76065	0.00000	3489.03700
4.76448	0.00000	3489.03700
4.76830	0.00000	3489.03700
4.77213	0.00000	3484.95700
4.77595	0.00000	3484.95700
4.77978	0.00000	3484.95700
4.78361	0.00000	3484.95700
4.78743	0.00000	3484.95700
4.79125	0.00000	3485.71400
4.79508	0.00000	3485.71400
4.79890	0.00000	3485.71400
4.80273	0.00000	3485.71400
4.80656	0.00000	3488.53800
4.81038	0.00000	3488.53800
4.81421	0.00000	3488.53800
4.81804	0.00000	3488.53800
4.82186	0.00000	3488.53800
4.82570	0.00000	3489.03700
4.82952	0.00000	3489.03700
4.83334	0.00000	3489.03700
4.83718	0.00000	3489.03700
4.84100	0.00000	3484.70300
4.84482	0.00000	3484.70300
4.84864	0.00000	3484.70300
4.85246	0.00000	3484.70300
4.85628	0.00000	3484.70300
4.86010	0.00000	3478.57100
4.86392	0.00000	3478.57100
4.86774	0.00000	3478.57100
4.87157	0.00000	3478.57100
4.87540	0.00000	3485.21000
4.87923	0.00000	3485.21000
4.88306	0.00000	3485.21000
4.88688	0.00000	3485.21000
4.89071	0.00000	3485.21000
4.89452	0.00000	3481.88700
4.89835	0.00000	3481.88700
4.90217	0.00000	3481.88700
4.90599	0.00000	3481.88700
4.90982	0.00000	3484.70300
4.91365	0.00000	3484.70300
4.91748	0.00000	3484.70300
4.92131	0.00000	3484.70300
4.92514	0.00000	3484.70300
4.92895	0.00000	3488.78800
4.93278	0.00000	3488.78800
4.93660	0.00000	3488.78800
4.94042	0.00000	3488.78800
4.94424	0.00000	3484.95700
4.94807	0.00000	3484.95700
4.95189	0.00000	3484.95700
4.95573	0.00000	3484.95700
4.95954	0.00000	3484.95700
4.96337	0.00000	3485.46200
4.96719	0.00000	3485.46200
4.97103	0.00000	3485.46200
4.97486	0.00000	3485.46200
4.97868	0.00000	3481.37500
4.98251	0.00000	3481.37500
4.98633	0.00000	3481.37500
4.99015	0.00000	3481.37500
4.99398	0.00000	3481.37500
4.99780	0.00000	3488.78800
5.00213	0.00000	3488.78800
5.00599	0.00000	3488.78800
5.00984	0.00000	3488.78800
5.01368	0.00000	3484.95700
5.01754	0.00000	3484.95700
5.02137	0.00000	3484.95700
5.02521	0.00000	3484.95700
5.02904	0.00000	3484.95700
5.03296	0.00000	3592.87700
5.03682	0.00000	3592.87700
5.04065	0.00000	3592.87700
5.04448	0.00000	3592.87700
5.04832	0.00000	3592.87700
5.05216	0.00000	3770.30700
5.05599	0.00000	3770.30700
5.05982	0.00000	3770.30700
5.06365	0.00000	3770.30700
5.06748	0.00000	3902.65400
5.07132	0.00000	3902.65400
5.07515	0.00000	3902.65400
5.07899	0.00000	3902.65400
5.08282	0.00000	3902.65400
5.08665	0.00000	4015.77300
5.09048	0.00000	4015.77300
5.09430	0.00000	4015.77300
5.09813	0.00000	4015.77300
5.10197	0.00000	4015.77300
5.10580	0.00000	4093.80300
5.10964	0.00000	4093.80300
5.11349	0.00000	4093.80300
5.11732	0.00000	4093.80300
5.12115	0.00000	4093.80300
5.12498	0.00000	4093.80300
5.12880	0.00000	4167.36400
5.13265	0.00000	4167.36400
5.13648	0.00000	4167.36400
5.14031	0.00000	4167.36400
5.14414	0.00000	4167.36400
5.14798	0.00000	4229.18300
5.15181	0.00000	4229.18300
5.15565	0.00000	4229.18300
5.15948	0.00000	4229.18300
5.16331	0.00000	4229.18300
5.16714	0.00000	4276.10100
5.17098	0.00000	4276.10100
5.17480	0.00000	4276.10100
5.17865	0.00000	4276.10100
5.18248	0.00000	4276.10100
5.18631	0.00000	4320.85000
5.19015	0.00000	4320.85000
5.19398	0.00000	4320.85000
5.19781	0.00000	4320.85000
5.20164	0.00000	4320.85000
5.20547	0.00000	4320.85000
5.20930	0.00000	4353.96600
5.21313	0.00000	4353.96600
5.21696	0.00000	4353.96600
5.22080	0.00000	4353.96600
5.22463	0.00000	4353.96600
5.22846	0.00000	4384.47700
5.23230	0.00000	4384.47700
5.23612	0.00000	4384.47700
5.23996	0.00000	4384.47700
5.24378	0.00000	4384.47700
5.24762	0.00000	4405.80200
5.25144	0.00000	4405.80200
5.25528	0.00000	4405.80200
5.25911	0.00000	4405.80200
5.26294	0.00000	4405.80200
5.26678	0.00000	4405.80200
5.27060	0.00000	4430.47900
5.27443	0.00000	4430.47900
5.27829	0.00000	4430.47900
5.28214	0.00000	4430.47900
5.28597	0.00000	4430.47900
5.28980	0.00000	4444.44400
5.29363	0.00000	4444.44400
5.29746	0.00000	4444.44400
5.30128	0.00000	4444.44400
5.30511	0.00000	4444.44400
5.30894	0.00000	4459.93700
5.31277	0.00000	4459.93700
5.31661	0.00000	4459.93700
5.32044	0.00000	4459.93700
5.32428	0.00000	4459.93700
5.32812	0.00000	4459.93700
5.33196	0.00000	4473.52900
5.33578	0.00000	4473.52900
5.33961	0.00000	4473.52900
5.34344	0.00000	4473.52900
5.34727	0.00000	4473.52900
5.35110	0.00000	4481.20600
5.35494	0.00000	4481.20600
5.35877	0.00000	4481.20600
5.36261	0.00000	4481.20600
5.36643	0.00000	4481.20600
5.37026	0.00000	4481.20600
5.37409	0.00000	4492.43000
5.37793	0.00000	4492.43000
5.38177	0.00000	4492.43000
5.38560	0.00000	4492.43000
5.38942	0.00000	4492.43000
5.39325	0.00000	4492.97900
5.39709	0.00000	4492.97900
5.40093	0.00000	4492.97900
5.40476	0.00000	4492.97900
5.40859	0.00000	4492.97900
5.41242	0.00000	4492.97900
5.41626	0.00000	4504.06000
5.42009	0.00000	4504.06000
5.42392	0.00000	4504.06000
5.42775	0.00000	4504.06000
5.43159	0.00000	4504.06000
5.43542	0.00000	4511.67300
5.43926	0.00000	4511.67300
5.44309	0.00000	4511.67300
5.44693	0.00000	4511.67300
5.45076	0.00000	4511.67300
5.45460	0.00000	4511.67300
5.45844	0.00000	4514.47800
5.46227	0.00000	4514.47800
5.46610	0.00000	4514.47800
5.46993	0.00000	4514.47800
5.47377	0.00000	4514.47800
5.47759	0.00000	4519.23100
5.48143	0.00000	4519.23100
5.48527	0.00000	4519.23100
5.48911	0.00000	4519.23100
5.49294	0.00000	4519.23100
5.49677	0.00000	4519.23100
5.50060	0.00000	4508.68700
5.50443	0.00000	4508.68700
5.50825	0.00000	4508.68700
5.51208	0.00000	4508.68700
5.51591	0.00000	4508.68700
5.51975	0.00000	4518.03700
5.52358	0.00000	4518.03700
5.52741	0.00000	4518.03700
5.53124	0.00000	4518.03700
5.53508	0.00000	4518.03700
5.53891	0.00000	4518.03700
5.54274	0.00000	4521.97300
5.54658	0.00000	4521.97300
5.55041	0.00000	4521.97300
5.55424	0.00000	4521.97300
5.55807	0.00000	4521.97300
5.56188	0.00000	4526.16300
5.56570	0.00000	4526.16300
5.56953	0.00000	4526.16300
5.57335	0.00000	4526.16300
5.57718	0.00000	4526.16300
5.58101	0.00000	4526.16300
5.58483	0.00000	4513.88900
5.58866	0.00000	4513.88900
5.59249	0.00000	4513.88900
5.59632	0.00000	4513.88900
5.60015	0.00000	4513.88900
5.60401	0.00000	4526.16300
5.60785	0.00000	4526.16300
5.61167	0.00000	4526.16300
5.61551	0.00000	4526.16300
5.61934	0.00000	4526.16300
5.62318	0.00000	4526.16300
5.62701	0.00000	4524.86500
5.63084	0.00000	4524.86500
5.63467	0.00000	4524.86500
5.63850	0.00000	4524.86500
5.64233	0.00000	4524.86500
5.64617	0.00000	4520.34800
5.65001	0.00000	4520.34800
5.65385	0.00000	4520.34800
5.65770	0.00000	4520.34800
5.66152	0.00000	4520.34800
5.66536	0.00000	4520.34800
5.66919	0.00000	4517.37400
5.67302	0.00000	4517.37400
5.67685	0.00000	4517.37400
5.68068	0.00000	4517.37400
5.68451	0.00000	4517.37400
5.68834	0.00000	4521.54500
5.69217	0.00000	4521.54500
5.69600	0.00000	4521.54500
5.69984	0.00000	4521.54500
5.70366	0.00000	4521.54500
5.70749	0.00000	4521.54500
5.71133	0.00000	4522.57000
5.71516	0.00000	4522.57000
5.71899	0.00000	4522.57000
5.72282	0.00000	4522.57000
5.72665	0.00000	4522.57000
5.73048	0.00000	4521.54500
5.73430	0.00000	4521.54500
5.73814	0.00000	4521.54500
5.74198	0.00000	4521.54500
5.74581	0.00000	4521.54500
5.74964	0.00000	4521.54500
5.75346	0.00000	4524.36200
5.75729	0.00000	4524.36200
5.76112	0.00000	4524.36200
5.76496	0.00000	4524.36200
5.76879	0.00000	4524.36200
5.77262	0.00000	4522.65600
5.77645	0.00000	4522.65600
5.78027	0.00000	4522.65600
5.78411	0.00000	4522.65600
5.78795	0.00000	4522.65600
5.79177	0.00000	4522.65600
5.79561	0.00000	4521.46200
5.79944	0.00000	4521.46200
5.80326	0.00000	4521.46200
5.80710	0.00000	4521.46200
5.81092	0.00000	4521.46200
5.81475	0.00000	4523.85600
5.81858	0.00000	4523.85600
5.82240	0.00000	4523.85600
5.82625	0.00000	4523.85600
5.83008	0.00000	4523.85600
5.83388	0.00000	4523.85600
5.83770	0.00000	4524.96100
5.84153	0.00000	4524.96100
5.84537	0.00000	4524.96100
5.84920	0.00000	4524.96100
5.85303	0.00000	4524.96100
5.85686	0.00000	4522.05800
5.86069	0.00000	4522.05800
5.86451	0.00000	4522.05800
5.86834	0.00000	4522.05800
5.87217	0.00000	4522.05800
5.87602	0.00000	4522.05800
5.87985	0.00000	4531.37000
5.88368	0.00000	4531.37000
5.88752	0.00000	4531.37000
5.89135	0.00000	4531.37000
5.89517	0.00000	4531.37000
5.89901	0.00000	4531.37000
5.90283	0.00000	4522.65600
5.90666	0.00000	4522.65600
5.91049	0.00000	4522.65600
5.91432	0.00000	4522.65600
5.91816	0.00000	4522.65600
5.92200	0.00000	4526.16300
5.92582	0.00000	4526.16300
5.92967	0.00000	4526.16300
5.93350	0.00000	4526.16300
5.93733	0.00000	4526.16300
5.94117	0.00000	4526.16300
5.94499	0.00000	4523.76300
5.94883	0.00000	4523.76300
5.95266	0.00000	4523.76300
5.95649	0.00000	4523.76300
5.96033	0.00000	4523.76300
5.96415	0.00000	4529.07000
5.96799	0.00000	4529.07000
5.97182	0.00000	4529.07000
5.97565	0.00000	4529.07000
5.97948	0.00000	4529.07000
5.98330	0.00000	4529.07000
5.98713	0.00000	4520.27000
5.99097	0.00000	4520.27000
5.99481	0.00000	4520.27000
5.99865	0.00000	4520.27000
6.00249	0.00000	4520.27000
6.00632	0.00000	4520.34800
6.01016	0.00000	4520.34800
6.01399	0.00000	4520.34800
6.01782	0.00000	4520.34800
6.02167	0.00000	4520.34800
6.02550	0.00000	4520.34800
6.02933	0.00000	4525.46300
6.03316	0.00000	4525.46300
6.03699	0.00000	4525.46300
6.04082	0.00000	4525.46300
6.04465	0.00000	4525.46300
6.04849	0.00000	4523.85600
6.05232	0.00000	4523.85600
6.05616	0.00000	4523.85600
6.05998	0.00000	4523.85600
6.06383	0.00000	4523.85600
6.06766	0.00000	4523.85600
6.07149	0.00000	4525.46300
6.07533	0.00000	4525.46300
6.07915	0.00000	4525.46300
6.08299	0.00000	4525.46300
6.08682	0.00000	4525.46300
6.09065	0.00000	4526.16300
6.09448	0.00000	4526.16300
6.09831	0.00000	4526.16300
6.10215	0.00000	4526.16300
6.10597	0.00000	4526.16300
6.10980	0.00000	4526.16300
6.11363	0.00000	4524.26800
6.11746	0.00000	4524.26800
6.12129	0.00000	4524.26800
6.12513	0.00000	4524.26800
6.12896	0.00000	4524.26800
6.13279	0.00000	4526.16300
6.13662	0.00000	4526.16300
6.14046	0.00000	4526.16300
6.14429	0.00000	4526.16300
6.14813	0.00000	4526.16300
6.15196	0.00000	4526.16300
6.15579	0.00000	4520.78500
6.15961	0.00000	4520.78500
6.16345	0.00000	4520.78500
6.16727	0.00000	4520.78500
6.17110	0.00000	4520.78500
6.17494	0.00000	4523.85600
6.17877	0.00000	4523.85600
6.18262	0.00000	4523.85600
6.18645	0.00000	4523.85600
6.19028	0.00000	4523.85600
6.19411	0.00000	4523.85600
6.19794	0.00000	4528.84600
6.20177	0.00000	4528.84600
6.20560	0.00000	4528.84600
6.20943	0.00000	4528.84600
6.21326	0.00000	4528.84600
6.21709	0.00000	4528.46600
6.22093	0.00000	4528.46600
6.22477	0.00000	4528.46600
6.22860	0.00000	4528.46600
6.23243	0.00000	4528.46600
6.23627	0.00000	4528.46600
6.24009	0.00000	4521.37900
6.24392	0.00000	4521.37900
6.24775	0.00000	4521.37900
6.25158	0.00000	4521.37900
6.25542	0.00000	4521.37900
6.25925	0.00000	4526.16300
6.26308	0.00000	4526.16300
6.26691	0.00000	4526.16300
6.27075	0.00000	4526.16300
6.27458	0.00000	4526.16300
6.27841	0.00000	4526.16300
6.28224	0.00000	4529.44600
6.28607	0.00000	4529.44600
6.28988	0.00000	4529.44600
6.29371	0.00000	4529.44600
6.29754	0.00000	4529.44600
6.30138	0.00000	4515.72200
6.30521	0.00000	4515.72200
6.30904	0.00000	4515.72200
6.31287	0.00000	4515.72200
6.31671	0.00000	4515.72200
6.32054	0.00000	4515.72200
6.32437	0.00000	4523.67200
6.32821	0.00000	4523.67200
6.33204	0.00000	4523.67200
6.33587	0.00000	4523.67200
6.33970	0.00000	4523.67200
6.34353	0.00000	4520.94600
6.34737	0.00000	4520.94600
6.35120	0.00000	4520.94600
6.35503	0.00000	4520.94600
6.35886	0.00000	4520.94600
6.36268	0.00000	4520.94600
6.36650	0.00000	4516.19100
6.37034	0.00000	4516.19100
6.37416	0.00000	4516.19100
6.37801	0.00000	4516.19100
6.38184	0.00000	4516.19100
6.38568	0.00000	4523.85600
6.38951	0.00000	4523.85600
6.39334	0.00000	4523.85600
6.39718	0.00000	4523.85600
6.40100	0.00000	4523.85600
6.40484	0.00000	4523.85600
6.40868	0.00000	4521.37900
6.41251	0.00000	4521.37900
6.41634	0.00000	4521.37900
6.42017	0.00000	4521.37900
6.42400	0.00000	4521.37900
6.42784	0.00000	4526.76500
6.43168	0.00000	4526.76500
6.43551	0.00000	4526.76500
6.43935	0.00000	4526.76500
6.44318	0.00000	4526.76500
6.44702	0.00000	4526.76500
6.45085	0.00000	4526.55900
6.45467	0.00000	4526.55900
6.45850	0.00000	4526.55900
6.46233	0.00000	4526.55900
6.46618	0.00000	4526.55900
6.47002	0.00000	4520.34800
6.47385	0.00000	4520.34800
6.47769	0.00000	4520.34800
6.48152	0.00000	4520.34800
6.48534	0.00000	4520.34800
6.48918	0.00000	4520.34800
6.49301	0.00000	4521.97300
6.49683	0.00000	4521.97300
6.50067	0.00000	4521.97300
6.50450	0.00000	4521.97300
6.50832	0.00000	4521.97300
6.51216	0.00000	4520.94600
6.51601	0.00000	4520.94600
6.51984	0.00000	4520.94600
6.52368	0.00000	4520.94600
6.52752	0.00000	4520.94600
6.53136	0.00000	4520.94600
6.53519	0.00000	4526.55900
6.53902	0.00000	4526.55900
6.54285	0.00000	4526.55900
6.54669	0.00000	4526.55900
6.55053	0.00000	4526.55900
6.55436	0.00000	4521.54500
6.55820	0.00000	4521.54500
6.56203	0.00000	4521.54500
6.56586	0.00000	4521.54500
6.56972	0.00000	4521.54500
6.57354	0.00000	4521.54500
6.57737	0.00000	4521.37900
6.58120	0.00000	4521.37900
6.58503	0.00000	4521.37900
6.58887	0.00000	4521.37900
6.59269	0.00000	4521.37900
6.59653	0.00000	4523.85600
6.60038	0.00000	4523.85600
6.60421	0.00000	4523.85600
6.60803	0.00000	4523.85600
6.61187	0.00000	4523.85600
6.61570	0.00000	4523.85600
6.61954	0.00000	4524.26800
6.62337	0.00000	4524.26800
6.62721	0.00000	4524.26800
6.63104	0.00000	4524.26800
6.63488	0.00000	4524.26800
6.63871	0.00000	4521.54500
6.64256	0.00000	4521.54500
6.64640	0.00000	4521.54500
6.65023	0.00000	4521.54500
6.65406	0.00000	4521.54500
6.65788	0.00000	4521.54500
6.66171	0.00000	4528.95700
6.66554	0.00000	4528.95700
6.66936	0.00000	4528.95700
6.67320	0.00000	4528.95700
6.67703	0.00000	4528.95700
6.68088	0.00000	4524.45600
6.68471	0.00000	4524.45600
6.68854	0.00000	4524.45600
6.69237	0.00000	4524.45600
6.69620	0.00000	4524.45600
6.70004	0.00000	4524.45600
6.70388	0.00000	4517.96700
6.70770	0.00000	4517.96700
6.71153	0.00000	4517.96700
6.71536	0.00000	4517.96700
6.71918	0.00000	4517.96700
6.72302	0.00000	4521.54500
6.72686	0.00000	4521.54500
6.73070	0.00000	4521.54500
6.73453	0.00000	4521.54500
6.73836	0.00000	4521.54500
6.74219	0.00000	4521.54500
6.74602	0.00000	4524.96100
6.74985	0.00000	4524.96100
6.75369	0.00000	4524.96100
6.75752	0.00000	4524.96100
6.76135	0.00000	4524.96100
6.76518	0.00000	4520.94600
6.76901	0.00000	4520.94600
6.77284	0.00000	4520.94600
6.77667	0.00000	4520.94600
6.78050	0.00000	4520.94600
6.78434	0.00000	4520.94600
6.78816	0.00000	4516.84700
6.79199	0.00000	4516.84700
6.79583	0.00000	4516.84700
6.79966	0.00000	4516.84700
6.80349	0.00000	4516.84700
6.80732	0.00000	4513.40300
6.81117	0.00000	4513.40300
6.81500	0.00000	4513.40300
6.81883	0.00000	4513.40300
6.82266	0.00000	4513.40300
6.82649	0.00000	4513.40300
6.83032	0.00000	4515.66100
6.83415	0.00000	4515.66100
6.83799	0.00000	4515.66100
6.84182	0.00000	4515.66100
6.84566	0.00000	4515.66100
6.84949	0.00000	4518.63300
6.85334	0.00000	4518.63300
6.85717	0.00000	4518.63300
6.86101	0.00000	4518.63300
6.86484	0.00000	4518.63300
6.86867	0.00000	4518.63300
6.87250	0.00000	4519.15600
6.87633	0.00000	4519.15600
6.88017	0.00000	4519.15600
6.88400	0.00000	4519.15600
6.88782	0.00000	4519.15600
6.89165	0.00000	4515.72200
6.89548	0.00000	4515.72200
6.89931	0.00000	4515.72200
6.90315	0.00000	4515.72200
6.90697	0.00000	4515.72200
6.91081	0.00000	4515.72200
6.91464	0.00000	4516.84700
6.91847	0.00000	4516.84700
6.92230	0.00000	4516.84700
6.92613	0.00000	4516.84700
6.92996	0.00000	4516.84700
6.93379	0.00000	4516.31700
6.93762	0.00000	4516.31700
6.94146	0.00000	4516.31700
6.94528	0.00000	4516.31700
6.94912	0.00000	4516.31700
6.95296	0.00000	4516.31700
6.95678	0.00000	4513.94300
6.96062	0.00000	4513.94300
6.96445	0.00000	4513.94300
6.96828	0.00000	4513.94300
6.97211	0.00000	4513.94300
6.97594	0.00000	4519.23100
6.97978	0.00000	4519.23100
6.98362	0.00000	4519.23100
6.98745	0.00000	4519.23100
6.99128	0.00000	4519.23100
6.99512	0.00000	4519.23100
6.99895	0.00000	4517.44200
7.00278	0.00000	4517.44200
7.00660	0.00000	4517.44200
7.01043	0.00000	4517.44200
7.01426	0.00000	4517.44200
7.01809	0.00000	4513.40300
7.02194	0.00000	4513.40300
7.02577	0.00000	4513.40300
7.02960	0.00000	4513.40300
7.03343	0.00000	4513.40300
7.03727	0.00000	4513.40300
7.04110	0.00000	4519.75200
7.04493	0.00000	4519.75200
7.04878	0.00000	4519.75200
7.05261	0.00000	4519.75200
7.05644	0.00000	4519.75200
7.06027	0.00000	4516.31700
7.06409	0.00000	4516.31700
7.06792	0.00000	4516.31700
7.07175	0.00000	4516.31700
7.07559	0.00000	4516.31700
7.07943	0.00000	4516.31700
7.08326	0.00000	4512.17100
7.08709	0.00000	4512.17100
7.09092	0.00000	4512.17100
7.09474	0.00000	4512.17100
7.09857	0.00000	4512.17100
7.10241	0.00000	4516.31700
7.10624	0.00000	4516.31700
7.11007	0.00000	4516.31700
7.11388	0.00000	4516.31700
7.11770	0.00000	4516.31700
7.12153	0.00000	4516.31700
7.12536	0.00000	4511.03800
7.12918	0.00000	4511.03800
7.13301	0.00000	4511.03800
7.13685	0.00000	4511.03800
7.14068	0.00000	4511.03800
7.14451	0.00000	4519.23100
7.14834	0.00000	4519.23100
7.15217	0.00000	4519.23100
7.15599	0.00000	4519.23100
7.15982	0.00000	4519.23100
7.16365	0.00000	4519.23100
7.16749	0.00000	4515.12800
7.17133	0.00000	4515.12800
7.17516	0.00000	4515.12800
7.17899	0.00000	4515.12800
7.18281	0.00000	4515.12800
7.18665	0.00000	4513.40300
7.19049	0.00000	4513.40300
7.19432	0.00000	4513.40300
7.19815	0.00000	4513.40300
7.20198	0.00000	4513.40300
7.20581	0.00000	4513.40300
7.20964	0.00000	4511.03800
7.21346	0.00000	4511.03800
7.21729	0.00000	4511.03800
7.22112	0.00000	4511.03800
7.22495	0.00000	4511.03800
7.22878	0.00000	4508.75500
7.23261	0.00000	4508.75500
7.23645	0.00000	4508.75500
7.24028	0.00000	4508.75500
7.24410	0.00000	4508.75500
7.24794	0.00000	4508.75500
7.25177	0.00000	4515.07000
7.25560	0.00000	4515.07000
7.25944	0.00000	4515.07000
7.26327	0.00000	4515.07000
7.26711	0.00000	4515.07000
7.27094	0.00000	4519.23100
7.27478	0.00000	4519.23100
7.27860	0.00000	4519.23100
7.28244	0.00000	4519.23100
7.28627	0.00000	4519.23100
7.29010	0.00000	4519.23100
7.29393	0.00000	4510.44800
7.29777	0.00000	4510.44800
7.30159	0.00000	4510.44800
7.30543	0.00000	4510.44800
7.30925	0.00000	4510.44800
7.31308	0.00000	4508.75500
7.31692	0.00000	4508.75500
7.32075	0.00000	4508.75500
7.32458	0.00000	4508.75500
7.32840	0.00000	4508.75500
7.33223	0.00000	4508.75500
7.33606	0.00000	4509.27300
7.33990	0.00000	4509.27300
7.34374	0.00000	4509.27300
7.34757	0.00000	4509.27300
7.35140	0.00000	4509.27300
7.35523	0.00000	4515.72200
7.35909	0.00000	4515.72200
7.36292	0.00000	4515.72200
7.36674	0.00000	4515.72200
7.37057	0.00000	4515.72200
7.37440	0.00000	4515.72200
7.37823	0.00000	4514.47800
7.38206	0.00000	4514.47800
7.38588	0.00000	4514.47800
7.38971	0.00000	4514.47800
7.39354	0.00000	4514.47800
7.39737	0.00000	4515.72200
7.40122	0.00000	4515.72200
7.40505	0.00000	4515.72200
7.40888	0.00000	4515.72200
7.41272	0.00000	4515.72200
7.41656	0.00000	4515.72200
7.42038	0.00000	4516.84700
7.42422	0.00000	4516.84700
7.42806	0.00000	4516.84700
7.43188	0.00000	4516.84700
7.43572	0.00000	4516.84700
7.43954	0.00000	4519.23100
7.44340	0.00000	4519.23100
7.44723	0.00000	4519.23100
7.45106	0.00000	4519.23100
7.45489	0.00000	4519.23100
7.45871	0.00000	4519.23100
7.46255	0.00000	4519.15600
7.46638	0.00000	4519.15600
7.47021	0.00000	4519.15600
7.47404	0.00000	4519.15600
7.47788	0.00000	4519.15600
7.48171	0.00000	4511.08100
7.48555	0.00000	4511.08100
7.48937	0.00000	4511.08100
7.49322	0.00000	4511.08100
7.49705	0.00000	4511.08100
7.50088	0.00000	4511.08100
7.50472	0.00000	4511.58300
7.50856	0.00000	4511.58300
7.51239	0.00000	4511.58300
7.51623	0.00000	4511.58300
7.52005	0.00000	4511.58300
7.52388	0.00000	4515.72200
7.52772	0.00000	4515.72200
7.53155	0.00000	4515.72200
7.53539	0.00000	4515.72200
7.53921	0.00000	4515.72200
7.54304	0.00000	4515.72200
7.54687	0.00000	4512.17100
7.55070	0.00000	4512.17100
7.55453	0.00000	4512.17100
7.55836	0.00000	4512.17100
7.56219	0.00000	4512.17100
7.56602	0.00000	4518.63300
7.56987	0.00000	4518.63300
7.57370	0.00000	4518.63300
7.57753	0.00000	4518.63300
7.58136	0.00000	4518.63300
7.58519	0.00000	4518.63300
7.58902	0.00000	4515.07000
7.59286	0.00000	4515.07000
7.59670	0.00000	4515.07000
7.60053	0.00000	4515.07000
7.60436	0.00000	4515.07000
7.60818	0.00000	4513.40300
7.61204	0.00000	4513.40300
7.61587	0.00000	4513.40300
7.61970	0.00000	4513.40300
7.62353	0.00000	4513.40300
7.62736	0.00000	4513.40300
7.63118	0.00000	4516.78200
7.63502	0.00000	4516.78200
7.63885	0.00000	4516.78200
7.64268	0.00000	4516.78200
7.64652	0.00000	4516.78200
7.65035	0.00000	4511.08100
7.65421	0.00000	4511.08100
7.65805	0.00000	4511.08100
7.66188	0.00000	4511.08100
7.66570	0.00000	4511.08100
7.66954	0.00000	4511.08100
7.67336	0.00000	4516.19100
7.67719	0.00000	4516.19100
7.68102	0.00000	4516.19100
7.68485	0.00000	4516.19100
7.68867	0.00000	4516.19100
7.69252	0.00000	4519.23100
7.69637	0.00000	4519.23100
7.70019	0.00000	4519.23100
7.70402	0.00000	4519.23100
7.70785	0.00000	4519.23100
7.71168	0.00000	4519.23100
7.71550	0.00000	4515.66100
7.71934	0.00000	4515.66100
7.72317	0.00000	4515.66100
7.72701	0.00000	4515.66100
7.73085	0.00000	4515.66100
7.73469	0.00000	4516.31700
7.73852	0.00000	4516.31700
7.74235	0.00000	4516.31700
7.74618	0.00000	4516.31700
7.75001	0.00000	4516.31700
7.75385	0.00000	4516.31700
7.75769	0.00000	4512.17100
7.76153	0.00000	4512.17100
7.76535	0.00000	4512.17100
7.76918	0.00000	4512.17100
7.77301	0.00000	4512.17100
7.77684	0.00000	4513.40300
7.78069	0.00000	4513.40300
7.78452	0.00000	4513.40300
7.78836	0.00000	4513.40300
7.79219	0.00000	4513.40300
7.79603	0.00000	4513.40300
7.79986	0.00000	4519.67600
7.80370	0.00000	4519.67600
7.80753	0.00000	4519.67600
7.81137	0.00000	4519.67600
7.81520	0.00000	4519.67600
7.81904	0.00000	4518.03700
7.82290	0.00000	4518.03700
7.82674	0.00000	4518.03700
7.83057	0.00000	4518.03700
7.83440	0.00000	4518.03700
7.83824	0.00000	4518.03700
7.84207	0.00000	4520.27000
7.84588	0.00000	4520.27000
7.84972	0.00000	4520.27000
7.85355	0.00000	4520.27000
7.85738	0.00000	4520.27000
7.86121	0.00000	4510.48900
7.86506	0.00000	4510.48900
7.86889	0.00000	4510.48900
7.87272	0.00000	4510.48900
7.87655	0.00000	4510.48900
7.88038	0.00000	4510.48900
7.88421	0.00000	4511.58300
7.88805	0.00000	4511.58300
7.89188	0.00000	4511.58300
7.89571	0.00000	4511.58300
7.89953	0.00000	4511.58300
7.90336	0.00000	4519.82800
7.90719	0.00000	4519.82800
7.91102	0.00000	4519.82800
7.91485	0.00000	4519.82800
7.91868	0.00000	4519.82800
7.92252	0.00000	4519.82800
7.92635	0.00000	4515.66100
7.93018	0.00000	4515.66100
7.93402	0.00000	4515.66100
7.93784	0.00000	4515.66100
7.94168	0.00000	4515.66100
7.94551	0.00000	4519.23100
7.94935	0.00000	4519.23100
7.95317	0.00000	4519.23100
7.95700	0.00000	4519.23100
7.96083	0.00000	4519.23100
7.96467	0.00000	4519.23100
7.96849	0.00000	4519.15600
7.97232	0.00000	4519.15600
7.97615	0.00000	4519.15600
7.97999	0.00000	4519.15600
7.98382	0.00000	4519.15600
7.98766	0.00000	4516.31700
7.99150	0.00000	4516.31700
7.99533	0.00000	4516.31700
7.99916	0.00000	4516.31700
8.00299	0.00000	4516.31700
8.00682	0.00000	4516.31700
8.01065	0.00000	4516.25400
8.01448	0.00000	4516.25400
8.01830	0.00000	4516.25400
8.02213	0.00000	4516.25400
8.02596	0.00000	4516.25400
8.02979	0.00000	4521.54500
8.03362	0.00000	4521.54500
8.03745	0.00000	4521.54500
8.04128	0.00000	4521.54500
8.04511	0.00000	4521.54500
8.04894	0.00000	4521.54500
8.05278	0.00000	4517.37400
8.05660	0.00000	4517.37400
8.06043	0.00000	4517.37400
8.06426	0.00000	4517.37400
8.06809	0.00000	4517.37400
8.07192	0.00000	4515.72200
8.07577	0.00000	4515.72200
8.07960	0.00000	4515.72200
8.08344	0.00000	4515.72200
8.08726	0.00000	4515.72200
8.09109	0.00000	4515.72200
8.09491	0.00000	4516.84700
8.09876	0.00000	4516.84700
8.10259	0.00000	4516.84700
8.10642	0.00000	4516.84700
8.11024	0.00000	4516.84700
8.11408	0.00000	4521.54500
8.11788	0.00000	4521.54500
8.12171	0.00000	4521.54500
8.12554	0.00000	4521.54500
8.12939	0.00000	4521.54500
8.13322	0.00000	4521.54500
8.13704	0.00000	4515.66100
8.14087	0.00000	4515.66100
8.14470	0.00000	4515.66100
8.14853	0.00000	4515.66100
8.15236	0.00000	4515.66100
8.15618	0.00000	4511.08100
8.16001	0.00000	4511.08100
8.16383	0.00000	4511.08100
8.16767	0.00000	4511.08100
8.17150	0.00000	4511.08100
8.17533	0.00000	4511.08100
8.17916	0.00000	4517.44200
8.18300	0.00000	4517.44200
8.18683	0.00000	4517.44200
8.19066	0.00000	4517.44200
8.19450	0.00000	4517.44200
8.19833	0.00000	4521.54500
8.20215	0.00000	4521.54500
8.20598	0.00000	4521.54500
8.20981	0.00000	4521.54500
8.21364	0.00000	4521.54500
8.21748	0.00000	4521.54500
8.22131	0.00000	4516.84700
8.22514	0.00000	4516.84700
8.22898	0.00000	4516.84700
8.23282	0.00000	4516.84700
8.23664	0.00000	4516.84700
8.24048	0.00000	4515.12800
8.24430	0.00000	4515.12800
8.24813	0.00000	4515.12800
8.25196	0.00000	4515.12800
8.25579	0.00000	4515.12800
8.25961	0.00000	4515.12800
8.26344	0.00000	4516.25400
8.26727	0.00000	4516.25400
8.27110	0.00000	4516.25400
8.27492	0.00000	4516.25400
8.27875	0.00000	4516.25400
8.28258	0.00000	4522.14400
8.28640	0.00000	4522.14400
8.29023	0.00000	4522.14400
8.29405	0.00000	4522.14400
8.29788	0.00000	4522.14400
8.30170	0.00000	4522.14400
8.30553	0.00000	4515.12800
8.30937	0.00000	4515.12800
8.31323	0.00000	4515.12800
8.31709	0.00000	4515.12800
8.32093	0.00000	4515.12800
8.32477	0.00000	4524.45600
8.32861	0.00000	4524.45600
8.33244	0.00000	4524.45600
8.33628	0.00000	4524.45600
8.34010	0.00000	4524.45600
8.34394	0.00000	4524.45600
8.34777	0.00000	4516.25400
8.35161	0.00000	4516.25400
8.35544	0.00000	4516.25400
8.35927	0.00000	4516.25400
8.36311	0.00000	4516.25400
8.36696	0.00000	4519.23100
8.37082	0.00000	4519.23100
8.37467	0.00000	4519.23100
8.37851	0.00000	4519.23100
8.38235	0.00000	4519.23100
8.38618	0.00000	4519.23100
8.39002	0.00000	4524.96100
8.39385	0.00000	4524.96100
8.39771	0.00000	4524.96100
8.40155	0.00000	4524.96100
8.40538	0.00000	4524.96100
8.40922	0.00000	4518.63300
8.41306	0.00000	4518.63300
8.41689	0.00000	4518.63300
8.42072	0.00000	4518.63300
8.42454	0.00000	4518.63300
8.42837	0.00000	4518.63300
8.43221	0.00000	4524.96100
8.43603	0.00000	4524.96100
8.43986	0.00000	4524.96100
8.44370	0.00000	4524.96100
8.44753	0.00000	4524.96100
8.45137	0.00000	4509.89900
8.45519	0.00000	4509.89900
8.45903	0.00000	4509.89900
8.46286	0.00000	4509.89900
8.46669	0.00000	4509.89900
8.47051	0.00000	4509.89900
8.47434	0.00000	4513.94300
8.47817	0.00000	4513.94300
8.48201	0.00000	4513.94300
8.48585	0.00000	4513.94300
8.48969	0.00000	4513.94300
8.49352	0.00000	4519.23100
8.49737	0.00000	4519.23100
8.50122	0.00000	4519.23100
8.50505	0.00000	4519.23100
8.50888	0.00000	4519.23100
8.51271	0.00000	4519.23100
8.51654	0.00000	4519.15600
8.52037	0.00000	4519.15600
8.52420	0.00000	4519.15600
8.52804	0.00000	4519.15600
8.53188	0.00000	4519.15600
8.53570	0.00000	4512.81000
8.53954	0.00000	4512.81000
8.54338	0.00000	4512.81000
8.54721	0.00000	4512.81000
8.55105	0.00000	4512.81000
8.55487	0.00000	4512.81000
8.55871	0.00000	4515.66100
8.56256	0.00000	4515.66100
8.56639	0.00000	4515.66100
8.57022	0.00000	4515.66100
8.57405	0.00000	4515.66100
8.57788	0.00000	4513.99700
8.58173	0.00000	4513.99700
8.58557	0.00000	4513.99700
8.58940	0.00000	4513.99700
8.59323	0.00000	4513.99700
8.59707	0.00000	4513.99700
8.60091	0.00000	4515.07000
8.60473	0.00000	4515.07000
8.60857	0.00000	4515.07000
8.61240	0.00000	4515.07000
8.61623	0.00000	4515.07000
8.62006	0.00000	4511.08100
8.62390	0.00000	4511.08100
8.62773	0.00000	4511.08100
8.63156	0.00000	4511.08100
8.63539	0.00000	4511.08100
8.63922	0.00000	4511.08100
8.64306	0.00000	4513.88900
8.64690	0.00000	4513.88900
8.65073	0.00000	4513.88900
8.65456	0.00000	4513.88900
8.65840	0.00000	4513.88900
8.66223	0.00000	4510.48900
8.66608	0.00000	4510.48900
8.66988	0.00000	4510.48900
8.67371	0.00000	4510.48900
8.67754	0.00000	4510.48900
8.68137	0.00000	4510.48900
8.68520	0.00000	4516.78200
8.68903	0.00000	4516.78200
8.69286	0.00000	4516.78200
8.69669	0.00000	4516.78200
8.70053	0.00000	4516.78200
8.70436	0.00000	4515.72200
8.70820	0.00000	4515.72200
8.71203	0.00000	4515.72200
8.71587	0.00000	4515.72200
8.71971	0.00000	4515.72200
8.72354	0.00000	4515.72200
8.72738	0.00000	4517.37400
8.73121	0.00000	4517.37400
8.73504	0.00000	4517.37400
8.73888	0.00000	4517.37400
8.74271	0.00000	4517.37400
8.74654	0.00000	4516.31700
8.75038	0.00000	4516.31700
8.75421	0.00000	4516.31700
8.75804	0.00000	4516.31700
8.76188	0.00000	4516.31700
8.76571	0.00000	4516.31700
8.76954	0.00000	4512.17100
8.77337	0.00000	4512.17100
8.77720	0.00000	4512.17100
8.78103	0.00000	4512.17100
8.78486	0.00000	4512.17100
8.78869	0.00000	4518.63300
8.79253	0.00000	4518.63300
8.79636	0.00000	4518.63300
8.80019	0.00000	4518.63300
8.80402	0.00000	4518.63300
8.80785	0.00000	4518.63300
8.81168	0.00000	4514.47800
8.81551	0.00000	4514.47800
8.81935	0.00000	4514.47800
8.82318	0.00000	4514.47800
8.82701	0.00000	4514.47800
8.83084	0.00000	4511.08100
8.83467	0.00000	4511.08100
8.83850	0.00000	4511.08100
8.84233	0.00000	4511.08100
8.84616	0.00000	4511.08100
8.84998	0.00000	4511.08100
8.85382	0.00000	4514.47800
8.85766	0.00000	4514.47800
8.86149	0.00000	4514.47800
8.86532	0.00000	4514.47800
8.86915	0.00000	4514.47800
8.87298	0.00000	4511.67300
8.87683	0.00000	4511.67300
8.88065	0.00000	4511.67300
8.88448	0.00000	4511.67300
8.88831	0.00000	4511.67300
8.89215	0.00000	4511.67300
8.89597	0.00000	4514.47800
8.89980	0.00000	4514.47800
8.90364	0.00000	4514.47800
8.90747	0.00000	4514.47800
8.91129	0.00000	4514.47800
8.91513	0.00000	4508.16500
8.91898	0.00000	4508.16500
8.92281	0.00000	4508.16500
8.92664	0.00000	4508.16500
8.93048	0.00000	4508.16500
8.93430	0.00000	4508.16500
8.93813	0.00000	4520.27000
8.94197	0.00000	4520.27000
8.94580	0.00000	4520.27000
8.94962	0.00000	4520.27000
8.95347	0.00000	4520.27000
8.95730	0.00000	4515.72200
8.96114	0.00000	4515.72200
8.96497	0.00000	4515.72200
8.96881	0.00000	4515.72200
8.97265	0.00000	4515.72200
8.97648	0.00000	4515.72200
8.98031	0.00000	4509.86100
8.98414	0.00000	4509.86100
8.98797	0.00000	4509.86100
8.99180	0.00000	4509.86100
8.99564	0.00000	4509.86100
8.99946	0.00000	4513.99700
9.00330	0.00000	4513.99700
9.00713	0.00000	4513.99700
9.01097	0.00000	4513.99700
9.01480	0.00000	4513.99700
9.01863	0.00000	4513.99700
9.02246	0.00000	4512.17100
9.02629	0.00000	4512.17100
9.03012	0.00000	4512.17100
9.03396	0.00000	4512.17100
9.03779	0.00000	4512.17100
9.04162	0.00000	4516.31700
9.04546	0.00000	4516.31700
9.04929	0.00000	4516.31700
9.05313	0.00000	4516.31700
9.05696	0.00000	4516.31700
9.06079	0.00000	4516.31700
9.06463	0.00000	4510.44800
9.06846	0.00000	4510.44800
9.07229	0.00000	4510.44800
9.07612	0.00000	4510.44800
9.07996	0.00000	4510.44800
9.08379	0.00000	4511.08100
9.08763	0.00000	4511.08100
9.09147	0.00000	4511.08100
9.09530	0.00000	4511.08100
9.09913	0.00000	4511.08100
9.10297	0.00000	4511.08100
9.10681	0.00000	4506.37600
9.11065	0.00000	4506.37600
9.11447	0.00000	4506.37600
9.11830	0.00000	4506.37600
9.12213	0.00000	4506.37600
9.12596	0.00000	4508.16500
9.12982	0.00000	4508.16500
9.13364	0.00000	4508.16500
9.13747	0.00000	4508.16500
9.14131	0.00000	4508.16500
9.14513	0.00000	4508.16500
9.14897	0.00000	4511.58300
9.15280	0.00000	4511.58300
9.15663	0.00000	4511.58300
9.16047	0.00000	4511.58300
9.16431	0.00000	4511.58300
9.16814	0.00000	4516.31700
9.17200	0.00000	4516.31700
9.17582	0.00000	4516.31700
9.17967	0.00000	4516.31700
9.18350	0.00000	4516.31700
9.18735	0.00000	4516.31700
9.19118	0.00000	4510.99500
9.19501	0.00000	4510.99500
9.19884	0.00000	4510.99500
9.20267	0.00000	4510.99500
9.20650	0.00000	4510.99500
9.21033	0.00000	4506.42500
9.21416	0.00000	4506.42500
9.21800	0.00000	4506.42500
9.22183	0.00000	4506.42500
9.22567	0.00000	4506.42500
9.22951	0.00000	4506.42500
9.23335	0.00000	4508.10100
9.23719	0.00000	4508.10100
9.24102	0.00000	4508.10100
9.24484	0.00000	4508.10100
9.24868	0.00000	4508.10100
9.25251	0.00000	4511.67300
9.25633	0.00000	4511.67300
9.26017	0.00000	4511.67300
9.26401	0.00000	4511.67300
9.26784	0.00000	4511.67300
9.27167	0.00000	4511.67300
9.27550	0.00000	4515.07000
9.27933	0.00000	4515.07000
9.28316	0.00000	4515.07000
9.28698	0.00000	4515.07000
9.29082	0.00000	4515.07000
9.29464	0.00000	4508.75500
9.29848	0.00000	4508.75500
9.30231	0.00000	4508.75500
9.30615	0.00000	4508.75500
9.30998	0.00000	4508.75500
9.31381	0.00000	4508.75500
9.31764	0.00000	4509.27300
9.32146	0.00000	4509.27300
9.32529	0.00000	4509.27300
9.32912	0.00000	4509.27300
9.33295	0.00000	4509.27300
9.33679	0.00000	4504.66100
9.34062	0.00000	4504.66100
9.34446	0.00000	4504.66100
9.34829	0.00000	4504.66100
9.35213	0.00000	4504.66100
9.35596	0.00000	4504.66100
9.35979	0.00000	4511.58300
9.36362	0.00000	4511.58300
9.36747	0.00000	4511.58300
9.37130	0.00000	4511.58300
9.37514	0.00000	4511.58300
9.37897	0.00000	4505.83600
9.38279	0.00000	4505.83600
9.38664	0.00000	4505.83600
9.39047	0.00000	4505.83600
9.39430	0.00000	4505.83600
9.39813	0.00000	4505.83600
9.40196	0.00000	4510.44800
9.40579	0.00000	4510.44800
9.40962	0.00000	4510.44800
9.41346	0.00000	4510.44800
9.41729	0.00000	4510.44800
9.42113	0.00000	4508.75500
9.42498	0.00000	4508.75500
9.42881	0.00000	4508.75500
9.43263	0.00000	4508.75500
9.43647	0.00000	4508.75500
9.44030	0.00000	4508.75500
9.44414	0.00000	4506.37600
9.44797	0.00000	4506.37600
9.45180	0.00000	4506.37600
9.45563	0.00000	4506.37600
9.45946	0.00000	4506.37600
9.46329	0.00000	4505.83600
9.46710	0.00000	4505.83600
9.47092	0.00000	4505.83600
9.47475	0.00000	4505.83600
9.47857	0.00000	4505.83600
9.48239	0.00000	4505.83600
9.48621	0.00000	4506.37600
9.49004	0.00000	4506.37600
9.49385	0.00000	4506.37600
9.49767	0.00000	4506.37600
9.50149	0.00000	4506.37600
9.50530	0.00000	4512.26600
9.50913	0.00000	4512.26600
9.51295	0.00000	4512.26600
9.51676	0.00000	4512.26600
9.52059	0.00000	4512.26600
9.52440	0.00000	4512.26600
9.52821	0.00000	4501.74100
9.53203	0.00000	4501.74100
9.53585	0.00000	4501.74100
9.53968	0.00000	4501.74100
9.54350	0.00000	4501.74100
9.54732	0.00000	4511.08100
9.55115	0.00000	4511.08100
9.55498	0.00000	4511.08100
9.55880	0.00000	4511.08100
9.56262	0.00000	4511.08100
9.56647	0.00000	4511.08100
9.57030	0.00000	4509.86100
9.57414	0.00000	4509.86100
9.57797	0.00000	4509.86100
9.58180	0.00000	4509.86100
9.58564	0.00000	4509.86100
9.58947	0.00000	4509.34500
9.59329	0.00000	4509.34500
9.59712	0.00000	4509.34500
9.60096	0.00000	4509.34500
9.60479	0.00000	4509.34500
9.60862	0.00000	4509.34500
9.61246	0.00000	4506.96000
9.61629	0.00000	4506.96000
9.62013	0.00000	4506.96000
9.62395	0.00000	4506.96000
9.62779	0.00000	4506.96000
9.63161	0.00000	4503.50400
9.63544	0.00000	4503.50400
9.63928	0.00000	4503.50400
9.64312	0.00000	4503.50400
9.64695	0.00000	4503.50400
9.65079	0.00000	4503.50400
9.65463	0.00000	4512.17100
9.65846	0.00000	4512.17100
9.66228	0.00000	4512.17100
9.66611	0.00000	4512.17100
9.66995	0.00000	4512.17100
9.67378	0.00000	4502.91800
9.67760	0.00000	4502.91800
9.68143	0.00000	4502.91800
9.68527	0.00000	4502.91800
9.68909	0.00000	4502.91800
9.69294	0.00000	4502.91800
9.69676	0.00000	4504.64400
9.70059	0.00000	4504.64400
9.70442	0.00000	4504.64400
9.70825	0.00000	4504.64400
9.71208	0.00000	4504.64400
9.71590	0.00000	4511.08100
9.71977	0.00000	4511.08100
9.72360	0.00000	4511.08100
9.72744	0.00000	4511.08100
9.73127	0.00000	4511.08100
9.73509	0.00000	4511.08100
9.73892	0.00000	4501.74100
9.74275	0.00000	4501.74100
9.74658	0.00000	4501.74100
9.75041	0.00000	4501.74100
9.75424	0.00000	4501.74100
9.75807	0.00000	4511.67300
9.76188	0.00000	4511.67300
9.76570	0.00000	4511.67300
9.76954	0.00000	4511.67300
9.77338	0.00000	4511.67300
9.77720	0.00000	4511.67300
9.78104	0.00000	4507.54600
9.78486	0.00000	4507.54600
9.78871	0.00000	4507.54600
9.79253	0.00000	4507.54600
9.79636	0.00000	4507.54600
9.80020	0.00000	4505.83600
9.80403	0.00000	4505.83600
9.80787	0.00000	4505.83600
9.81171	0.00000	4505.83600
9.81553	0.00000	4505.83600
9.81937	0.00000	4505.83600
9.82320	0.00000	4501.74100
9.82705	0.00000	4501.74100
9.83088	0.00000	4501.74100
9.83470	0.00000	4501.74100
9.83856	0.00000	4501.74100
9.84239	0.00000	4505.83600
9.84622	0.00000	4505.83600
9.85005	0.00000	4505.83600
9.85388	0.00000	4505.83600
9.85771	0.00000	4505.83600
9.86154	0.00000	4505.83600
9.86537	0.00000	4501.74100
9.86920	0.00000	4501.74100
9.87302	0.00000	4501.74100
9.87687	0.00000	4501.74100
9.88070	0.00000	4501.74100
9.88454	0.00000	4506.42500
9.88837	0.00000	4506.42500
9.89221	0.00000	4506.42500
9.89605	0.00000	4506.42500
9.89988	0.00000	4506.42500
9.90371	0.00000	4506.42500
9.90754	0.00000	4503.47700
9.91137	0.00000	4503.47700
9.91520	0.00000	4503.47700
9.91903	0.00000	4503.47700
9.92286	0.00000	4503.47700
9.92669	0.00000	4503.50400
9.93052	0.00000	4503.50400
9.93436	0.00000	4503.50400
9.93819	0.00000	4503.50400
9.94202	0.00000	4503.50400
9.94585	0.00000	4503.50400
9.94969	0.00000	4505.79100
9.95352	0.00000	4505.79100
9.95736	0.00000	4505.79100
9.96120	0.00000	4505.79100
9.96503	0.00000	4505.79100
9.96886	0.00000	4505.83600
9.97270	0.00000	4505.83600
9.97653	0.00000	4505.83600
9.98036	0.00000	4505.83600
9.98419	0.00000	4505.83600
9.98802	0.00000	4505.83600
9.99186	0.00000	4506.96000
9.99569	0.00000	4506.96000
9.99953	0.00000	4506.96000
