Time (s)   Thrust (N)   RPM
0.00029	0.00000	3946.14300
0.00418	0.00000	3946.14300
0.00805	0.00000	3946.14300
0.01189	0.00000	3946.14300
0.01572	0.00000	3913.89800
0.01959	0.00000	3913.89800
0.02362	0.00000	3913.89800
0.02758	0.00000	3913.89800
0.03143	0.00000	3913.89800
0.03526	0.00000	3891.94500
0.03909	0.00000	3891.94500
0.04293	0.00000	3891.94500
0.04676	0.00000	3891.94500
0.05059	0.00000	3746.57800
0.05442	0.00000	3746.57800
0.05825	0.00000	3746.57800
0.06207	0.00000	3746.57800
0.06590	0.00000	3746.57800
0.06972	0.00000	3613.57200
0.07354	0.00000	3613.57200
0.07736	0.00000	3613.57200
0.08118	0.00000	3613.57200
0.08500	0.00000	3613.57200
0.08882	0.00000	3458.80700
0.09264	0.00000	3458.80700
0.09647	0.00000	3458.80700
0.10029	0.00000	3458.80700
0.10411	0.00000	3350.29000
0.10795	0.00000	3350.29000
0.11178	0.00000	3350.29000
0.11560	0.00000	3350.29000
0.11943	0.00000	3266.36900
0.12327	0.00000	3266.36900
0.12711	0.00000	3266.36900
0.13094	0.00000	3266.36900
0.13478	0.00000	3266.36900
0.13860	0.00000	3153.75000
0.14242	0.00000	3153.75000
0.14625	0.00000	3153.75000
0.15008	0.00000	3153.75000
0.15391	0.00000	3067.83500
0.15773	0.00000	3067.83500
0.16155	0.00000	3067.83500
0.16537	0.00000	3067.83500
0.16920	0.00000	2998.45000
0.17303	0.00000	2998.45000
0.17687	0.00000	2998.45000
0.18069	0.00000	2998.45000
0.18452	0.00000	2938.55000
0.18835	0.00000	2938.55000
0.19217	0.00000	2938.55000
0.19600	0.00000	2938.55000
0.19983	0.00000	2864.14100
0.20365	0.00000	2864.14100
0.20748	0.00000	2864.14100
0.21130	0.00000	2864.14100
0.21512	0.00000	2792.46800
0.21894	0.00000	2792.46800
0.22277	0.00000	2792.46800
0.22660	0.00000	2792.46800
0.23044	0.00000	2735.72200
0.23426	0.00000	2735.72200
0.23809	0.00000	2735.72200
0.24193	0.00000	2735.72200
0.24575	0.00000	2677.98900
0.24957	0.00000	2677.98900
0.25340	0.00000	2677.98900
0.25723	0.00000	2677.98900
0.26105	0.00000	2623.35500
0.26487	0.00000	2623.35500
0.26870	0.00000	2623.35500
0.27252	0.00000	2623.35500
0.27635	0.00000	2584.34700
0.28018	0.00000	2584.34700
0.28401	0.00000	2584.34700
0.28783	0.00000	2584.34700
0.29165	0.00000	2544.64200
0.29548	0.00000	2544.64200
0.29931	0.00000	2544.64200
0.30313	0.00000	2487.33100
0.30694	0.00000	2487.33100
0.31077	0.00000	2487.33100
0.31460	0.00000	2487.33100
0.31842	0.00000	2458.80600
0.32226	0.00000	2458.80600
0.32609	0.00000	2458.80600
0.32994	0.00000	2458.80600
0.33379	0.00000	2424.71500
0.33764	0.00000	2424.71500
0.34148	0.00000	2424.71500
0.34530	0.00000	2424.71500
0.34914	0.00000	2395.35500
0.35297	0.00000	2395.35500
0.35680	0.00000	2395.35500
0.36064	0.00000	2395.35500
0.36447	0.00000	2348.05000
0.36830	0.00000	2348.05000
0.37212	0.00000	2348.05000
0.37595	0.00000	2309.02700
0.37977	0.00000	2309.02700
0.38360	0.00000	2309.02700
0.38742	0.00000	2309.02700
0.39124	0.00000	2291.66600
0.39507	0.00000	2291.66600
0.39889	0.00000	2291.66600
0.40271	0.00000	2291.66600
0.40653	0.00000	2269.27600
0.41036	0.00000	2269.27600
0.41418	0.00000	2269.27600
0.41801	0.00000	2246.46200
0.42183	0.00000	2246.46200
0.42566	0.00000	2246.46200
0.42949	0.00000	2246.46200
0.43331	0.00000	2211.08400
0.43713	0.00000	2211.08400
0.44096	0.00000	2211.08400
0.44479	0.00000	2211.08400
0.44861	0.00000	2188.97400
0.45244	0.00000	2188.97400
0.45626	0.00000	2188.97400
0.46008	0.00000	2169.64200
0.46390	0.00000	2169.64200
0.46772	0.00000	2169.64200
0.47154	0.00000	2169.64200
0.47536	0.00000	2142.85700
0.47917	0.00000	2142.85700
0.48300	0.00000	2142.85700
0.48681	0.00000	2142.85700
0.49064	0.00000	2109.37500
0.49446	0.00000	2109.37500
0.49829	0.00000	2109.37500
0.50212	0.00000	2093.75000
0.50594	0.00000	2093.75000
0.50976	0.00000	2093.75000
0.51358	0.00000	2093.75000
0.51741	0.00000	2071.42800
0.52123	0.00000	2071.42800
0.52506	0.00000	2071.42800
0.52888	0.00000	2071.42800
0.53270	0.00000	2053.57100
0.53653	0.00000	2053.57100
0.54035	0.00000	2053.57100
0.54417	0.00000	2032.75200
0.54799	0.00000	2032.75200
0.55181	0.00000	2032.75200
0.55564	0.00000	2032.75200
0.55946	0.00000	2013.39200
0.56328	0.00000	2013.39200
0.56709	0.00000	2013.39200
0.57092	0.00000	2016.08000
0.57475	0.00000	2016.08000
0.57857	0.00000	2016.08000
0.58240	0.00000	2016.08000
0.58622	0.00000	1992.18700
0.59004	0.00000	1992.18700
0.59386	0.00000	1992.18700
0.59768	0.00000	1992.18700
0.60150	0.00000	1984.22300
0.60532	0.00000	1984.22300
0.60914	0.00000	1984.22300
0.61295	0.00000	1961.46800
0.61678	0.00000	1961.46800
0.62060	0.00000	1961.46800
0.62443	0.00000	1961.46800
0.62826	0.00000	1942.60800
0.63208	0.00000	1942.60800
0.63591	0.00000	1942.60800
0.63972	0.00000	1953.12400
0.64354	0.00000	1953.12400
0.64736	0.00000	1953.12400
0.65118	0.00000	1953.12400
0.65500	0.00000	1948.52900
0.65882	0.00000	1948.52900
0.66264	0.00000	1948.52900
0.66647	0.00000	1920.95500
0.67029	0.00000	1920.95500
0.67411	0.00000	1920.95500
0.67794	0.00000	1920.95500
0.68175	0.00000	1906.85600
0.68557	0.00000	1906.85600
0.68940	0.00000	1906.85600
0.69322	0.00000	1897.97800
0.69704	0.00000	1897.97800
0.70087	0.00000	1897.97800
0.70469	0.00000	1897.97800
0.70852	0.00000	1897.97800
0.71234	0.00000	1897.97800
0.71616	0.00000	1897.97800
0.71998	0.00000	1893.56400
0.72379	0.00000	1893.56400
0.72762	0.00000	1893.56400
0.73144	0.00000	1893.56400
0.73526	0.00000	1875.00000
0.73909	0.00000	1875.00000
0.74292	0.00000	1875.00000
0.74674	0.00000	1870.35800
0.75059	0.00000	1870.35800
0.75441	0.00000	1870.35800
0.75823	0.00000	1870.35800
0.76205	0.00000	1847.42600
0.76588	0.00000	1847.42600
0.76970	0.00000	1847.42600
0.77352	0.00000	1851.79400
0.77735	0.00000	1851.79400
0.78118	0.00000	1851.79400
0.78500	0.00000	1851.79400
0.78881	0.00000	1847.15300
0.79263	0.00000	1847.15300
0.79645	0.00000	1847.15300
0.80027	0.00000	1828.58900
0.80410	0.00000	1828.58900
0.80792	0.00000	1828.58900
0.81172	0.00000	1828.58900
0.81555	0.00000	1833.23000
0.81938	0.00000	1833.23000
0.82321	0.00000	1833.23000
0.82703	0.00000	1814.66500
0.83087	0.00000	1814.66500
0.83470	0.00000	1814.66500
0.83853	0.00000	1814.66500
0.84236	0.00000	1819.30700
0.84618	0.00000	1819.30700
0.85000	0.00000	1819.30700
0.85382	0.00000	1818.75000
0.85766	0.00000	1818.75000
0.86148	0.00000	1818.75000
0.86531	0.00000	1818.75000
0.86915	0.00000	1805.38300
0.87299	0.00000	1805.38300
0.87682	0.00000	1805.38300
0.88064	0.00000	1809.37500
0.88447	0.00000	1809.37500
0.88829	0.00000	1809.37500
0.89211	0.00000	1809.37500
0.89594	0.00000	1796.10100
0.89976	0.00000	1796.10100
0.90359	0.00000	1796.10100
0.90741	0.00000	1800.00000
0.91123	0.00000	1800.00000
0.91506	0.00000	1800.00000
0.91888	0.00000	1800.00000
0.92270	0.00000	1777.53700
0.92653	0.00000	1777.53700
0.93034	0.00000	1777.53700
0.93417	0.00000	1763.61300
0.93799	0.00000	1763.61300
0.94182	0.00000	1763.61300
0.94566	0.00000	1763.61300
0.94948	0.00000	1772.89600
0.95330	0.00000	1772.89600
0.95712	0.00000	1772.89600
0.96094	0.00000	1771.87500
0.96476	0.00000	1771.87500
0.96859	0.00000	1771.87500
0.97241	0.00000	1771.87500
0.97625	0.00000	1763.61300
0.98007	0.00000	1763.61300
0.98390	0.00000	1763.61300
0.98772	0.00000	1762.50000
0.99154	0.00000	1762.50000
0.99536	0.00000	1762.50000
0.99919	0.00000	1762.50000
1.00301	0.00000	1762.50000
1.00684	0.00000	1762.50000
1.01068	0.00000	1762.50000
1.01451	0.00000	1757.81200
1.01834	0.00000	1757.81200
1.02215	0.00000	1757.81200
1.02598	0.00000	1748.43700
1.02981	0.00000	1748.43700
1.03363	0.00000	1748.43700
1.03746	0.00000	1748.43700
1.04128	0.00000	1748.43700
1.04511	0.00000	1748.43700
1.04893	0.00000	1748.43700
1.05276	0.00000	1756.62800
1.05658	0.00000	1756.62800
1.06041	0.00000	1756.62800
1.06424	0.00000	1756.62800
1.06806	0.00000	1753.12500
1.07189	0.00000	1753.12500
1.07572	0.00000	1753.12500
1.07954	0.00000	1734.37500
1.08337	0.00000	1734.37500
1.08719	0.00000	1734.37500
1.09100	0.00000	1734.37500
1.09482	0.00000	1743.75000
1.09864	0.00000	1743.75000
1.10246	0.00000	1743.75000
1.10628	0.00000	1729.68700
1.11011	0.00000	1729.68700
1.11393	0.00000	1729.68700
1.11775	0.00000	1729.68700
1.12157	0.00000	1739.06200
1.12540	0.00000	1739.06200
1.12922	0.00000	1739.06200
1.13304	0.00000	1737.68900
1.13686	0.00000	1737.68900
1.14068	0.00000	1737.68900
1.14450	0.00000	1737.68900
1.14832	0.00000	1725.00000
1.15213	0.00000	1725.00000
1.15596	0.00000	1725.00000
1.15977	0.00000	1732.95400
1.16360	0.00000	1732.95400
1.16742	0.00000	1732.95400
1.17124	0.00000	1715.62500
1.17507	0.00000	1715.62500
1.17890	0.00000	1715.62500
1.18272	0.00000	1715.62500
1.18654	0.00000	1720.31200
1.19037	0.00000	1720.31200
1.19419	0.00000	1720.31200
1.19801	0.00000	1706.25000
1.20186	0.00000	1706.25000
1.20569	0.00000	1706.25000
1.20951	0.00000	1706.25000
1.21334	0.00000	1720.31200
1.21717	0.00000	1720.31200
1.22100	0.00000	1720.31200
1.22483	0.00000	1723.48400
1.22865	0.00000	1723.48400
1.23248	0.00000	1723.48400
1.23630	0.00000	1723.48400
1.24012	0.00000	1715.62500
1.24394	0.00000	1715.62500
1.24772	0.00000	1715.62500
1.25155	0.00000	1718.75000
1.25536	0.00000	1718.75000
1.25919	0.00000	1718.75000
1.26301	0.00000	1718.75000
1.26683	0.00000	1706.25000
1.27065	0.00000	1706.25000
1.27448	0.00000	1706.25000
1.27831	0.00000	1701.56200
1.28213	0.00000	1701.56200
1.28595	0.00000	1701.56200
1.28977	0.00000	1718.75000
1.29359	0.00000	1718.75000
1.29743	0.00000	1718.75000
1.30125	0.00000	1718.75000
1.30507	0.00000	1718.75000
1.30889	0.00000	1718.75000
1.31271	0.00000	1718.75000
1.31654	0.00000	1692.18700
1.32036	0.00000	1692.18700
1.32420	0.00000	1692.18700
1.32802	0.00000	1692.18700
1.33185	0.00000	1706.25000
1.33568	0.00000	1706.25000
1.33951	0.00000	1706.25000
1.34334	0.00000	1704.54500
1.34720	0.00000	1704.54500
1.35103	0.00000	1704.54500
1.35485	0.00000	1704.54500
1.35867	0.00000	1701.56200
1.36249	0.00000	1701.56200
1.36632	0.00000	1701.56200
1.37014	0.00000	1709.28000
1.37396	0.00000	1709.28000
1.37778	0.00000	1709.28000
1.38161	0.00000	1709.28000
1.38543	0.00000	1709.28000
1.38925	0.00000	1709.28000
1.39307	0.00000	1709.28000
1.39689	0.00000	1709.28000
1.40072	0.00000	1709.28000
1.40454	0.00000	1709.28000
1.40837	0.00000	1699.81000
1.41219	0.00000	1699.81000
1.41601	0.00000	1699.81000
1.41983	0.00000	1699.81000
1.42365	0.00000	1696.87500
1.42747	0.00000	1696.87500
1.43130	0.00000	1696.87500
1.43512	0.00000	1699.81000
1.43894	0.00000	1699.81000
1.44277	0.00000	1699.81000
1.44660	0.00000	1699.81000
1.45042	0.00000	1709.28000
1.45424	0.00000	1709.28000
1.45807	0.00000	1709.28000
1.46189	0.00000	1699.81000
1.46571	0.00000	1699.81000
1.46954	0.00000	1699.81000
1.47336	0.00000	1695.07500
1.47718	0.00000	1695.07500
1.48100	0.00000	1695.07500
1.48482	0.00000	1695.07500
1.48864	0.00000	1695.07500
1.49246	0.00000	1695.07500
1.49628	0.00000	1695.07500
1.50010	0.00000	1695.07500
1.50394	0.00000	1695.07500
1.50777	0.00000	1695.07500
1.51159	0.00000	1695.07500
1.51541	0.00000	1687.50000
1.51923	0.00000	1687.50000
1.52305	0.00000	1687.50000
1.52686	0.00000	1695.07500
1.53069	0.00000	1695.07500
1.53452	0.00000	1695.07500
1.53835	0.00000	1695.07500
1.54217	0.00000	1687.50000
1.54600	0.00000	1687.50000
1.54982	0.00000	1687.50000
1.55364	0.00000	1690.34000
1.55746	0.00000	1690.34000
1.56128	0.00000	1690.34000
1.56510	0.00000	1690.34000
1.56892	0.00000	1682.81200
1.57274	0.00000	1682.81200
1.57656	0.00000	1682.81200
1.58038	0.00000	1690.34000
1.58420	0.00000	1690.34000
1.58803	0.00000	1690.34000
1.59184	0.00000	1690.34000
1.59567	0.00000	1690.34000
1.59950	0.00000	1690.34000
1.60332	0.00000	1690.34000
1.60714	0.00000	1699.81000
1.61096	0.00000	1699.81000
1.61478	0.00000	1699.81000
1.61860	0.00000	1685.60600
1.62243	0.00000	1685.60600
1.62625	0.00000	1685.60600
1.63007	0.00000	1685.60600
1.63390	0.00000	1699.81000
1.63773	0.00000	1699.81000
1.64155	0.00000	1699.81000
1.64538	0.00000	1685.60600
1.64921	0.00000	1685.60600
1.65303	0.00000	1685.60600
1.65685	0.00000	1685.60600
1.66067	0.00000	1690.34000
1.66449	0.00000	1690.34000
1.66832	0.00000	1690.34000
1.67214	0.00000	1685.60600
1.67597	0.00000	1685.60600
1.67979	0.00000	1685.60600
1.68361	0.00000	1685.60600
1.68742	0.00000	1685.60600
1.69124	0.00000	1685.60600
1.69507	0.00000	1685.60600
1.69889	0.00000	1690.34000
1.70271	0.00000	1690.34000
1.70653	0.00000	1690.34000
1.71036	0.00000	1685.60600
1.71418	0.00000	1685.60600
1.71800	0.00000	1685.60600
1.72182	0.00000	1685.60600
1.72564	0.00000	1673.43700
1.72946	0.00000	1673.43700
1.73329	0.00000	1673.43700
1.73710	0.00000	1680.87100
1.74093	0.00000	1680.87100
1.74475	0.00000	1680.87100
1.74858	0.00000	1680.87100
1.75240	0.00000	1690.34000
1.75622	0.00000	1690.34000
1.76004	0.00000	1690.34000
1.76386	0.00000	1680.87100
1.76768	0.00000	1680.87100
1.77151	0.00000	1680.87100
1.77533	0.00000	1685.60600
1.77915	0.00000	1685.60600
1.78297	0.00000	1685.60600
1.78679	0.00000	1685.60600
1.79061	0.00000	1678.12500
1.79443	0.00000	1678.12500
1.79825	0.00000	1678.12500
1.80207	0.00000	1680.87100
1.80590	0.00000	1680.87100
1.80972	0.00000	1680.87100
1.81354	0.00000	1680.87100
1.81736	0.00000	1678.12500
1.82119	0.00000	1678.12500
1.82501	0.00000	1678.12500
1.82883	0.00000	1676.13600
1.83265	0.00000	1676.13600
1.83647	0.00000	1676.13600
1.84029	0.00000	1676.13600
1.84412	0.00000	1685.60600
1.84794	0.00000	1685.60600
1.85172	0.00000	1685.60600
1.85555	0.00000	1698.02300
1.85937	0.00000	1698.02300
1.86319	0.00000	1698.02300
1.86701	0.00000	1693.23900
1.87083	0.00000	1693.23900
1.87465	0.00000	1693.23900
1.87847	0.00000	1693.23900
1.88230	0.00000	1685.60600
1.88611	0.00000	1685.60600
1.88993	0.00000	1685.60600
1.89376	0.00000	1680.87100
1.89758	0.00000	1680.87100
1.90141	0.00000	1680.87100
1.90523	0.00000	1680.87100
1.90906	0.00000	1690.34000
1.91288	0.00000	1690.34000
1.91670	0.00000	1690.34000
1.92054	0.00000	1676.13600
1.92436	0.00000	1676.13600
1.92818	0.00000	1676.13600
1.93201	0.00000	1676.13600
1.93583	0.00000	1685.60600
1.93966	0.00000	1685.60600
1.94349	0.00000	1685.60600
1.94731	0.00000	1676.13600
1.95113	0.00000	1676.13600
1.95495	0.00000	1676.13600
1.95878	0.00000	1676.13600
1.96260	0.00000	1676.13600
1.96643	0.00000	1676.13600
1.97025	0.00000	1676.13600
1.97407	0.00000	1685.60600
1.97789	0.00000	1685.60600
1.98171	0.00000	1685.60600
1.98554	0.00000	1693.23900
1.98937	0.00000	1693.23900
1.99319	0.00000	1693.23900
1.99702	0.00000	1693.23900
2.00084	0.00000	1690.34000
2.00466	0.00000	1690.34000
2.00849	0.00000	1690.34000
2.01231	0.00000	1671.40100
2.01613	0.00000	1671.40100
2.01995	0.00000	1671.40100
2.02377	0.00000	1671.40100
2.02759	0.00000	1680.87100
2.03141	0.00000	1680.87100
2.03523	0.00000	1680.87100
2.03907	0.00000	1676.13600
2.04291	0.00000	1676.13600
2.04674	0.00000	1676.13600
2.05056	0.00000	1676.13600
2.05438	0.00000	1676.13600
2.05821	0.00000	1676.13600
2.06204	0.00000	1676.13600
2.06587	0.00000	1673.43700
2.06969	0.00000	1673.43700
2.07352	0.00000	1673.43700
2.07734	0.00000	1676.13600
2.08116	0.00000	1676.13600
2.08499	0.00000	1676.13600
2.08881	0.00000	1676.13600
2.09262	0.00000	1685.60600
2.09645	0.00000	1685.60600
2.10030	0.00000	1685.60600
2.10412	0.00000	1698.02300
2.10795	0.00000	1698.02300
2.11178	0.00000	1698.02300
2.11560	0.00000	1688.45600
2.11942	0.00000	1688.45600
2.12325	0.00000	1688.45600
2.12707	0.00000	1688.45600
2.13089	0.00000	1680.87100
2.13472	0.00000	1680.87100
2.13853	0.00000	1680.87100
2.14236	0.00000	1680.87100
2.14619	0.00000	1680.87100
2.15001	0.00000	1680.87100
2.15383	0.00000	1680.87100
2.15766	0.00000	1673.43700
2.16148	0.00000	1673.43700
2.16530	0.00000	1673.43700
2.16912	0.00000	1676.13600
2.17295	0.00000	1676.13600
2.17677	0.00000	1676.13600
2.18059	0.00000	1676.13600
2.18441	0.00000	1668.75000
2.18824	0.00000	1668.75000
2.19205	0.00000	1668.75000
2.19587	0.00000	1671.40100
2.19970	0.00000	1671.40100
2.20353	0.00000	1671.40100
2.20735	0.00000	1671.40100
2.21118	0.00000	1671.40100
2.21500	0.00000	1671.40100
2.21882	0.00000	1671.40100
2.22265	0.00000	1680.87100
2.22648	0.00000	1680.87100
2.23030	0.00000	1680.87100
2.23412	0.00000	1688.45600
2.23795	0.00000	1688.45600
2.24177	0.00000	1688.45600
2.24560	0.00000	1688.45600
2.24942	0.00000	1685.60600
2.25324	0.00000	1685.60600
2.25707	0.00000	1685.60600
2.26089	0.00000	1666.66600
2.26471	0.00000	1666.66600
2.26853	0.00000	1666.66600
2.27237	0.00000	1666.66600
2.27619	0.00000	1680.87100
2.28001	0.00000	1680.87100
2.28383	0.00000	1680.87100
2.28765	0.00000	1693.23900
2.29147	0.00000	1693.23900
2.29529	0.00000	1693.23900
2.29911	0.00000	1688.45600
2.30293	0.00000	1688.45600
2.30675	0.00000	1688.45600
2.31058	0.00000	1688.45600
2.31440	0.00000	1676.13600
2.31823	0.00000	1676.13600
2.32204	0.00000	1676.13600
2.32586	0.00000	1671.40100
2.32969	0.00000	1671.40100
2.33351	0.00000	1671.40100
2.33734	0.00000	1671.40100
2.34116	0.00000	1664.06200
2.34499	0.00000	1664.06200
2.34881	0.00000	1664.06200
2.35263	0.00000	1671.40100
2.35645	0.00000	1671.40100
2.36028	0.00000	1671.40100
2.36410	0.00000	1671.40100
2.36792	0.00000	1676.13600
2.37172	0.00000	1676.13600
2.37554	0.00000	1676.13600
2.37937	0.00000	1688.45600
2.38319	0.00000	1688.45600
2.38700	0.00000	1688.45600
2.39083	0.00000	1693.23900
2.39464	0.00000	1693.23900
2.39846	0.00000	1693.23900
2.40229	0.00000	1693.23900
2.40612	0.00000	1680.87100
2.40995	0.00000	1680.87100
2.41377	0.00000	1680.87100
2.41759	0.00000	1666.66600
2.42141	0.00000	1666.66600
2.42524	0.00000	1666.66600
2.42906	0.00000	1666.66600
2.43288	0.00000	1680.87100
2.43670	0.00000	1680.87100
2.44053	0.00000	1680.87100
2.44435	0.00000	1688.45600
2.44817	0.00000	1688.45600
2.45200	0.00000	1688.45600
2.45582	0.00000	1688.45600
2.45964	0.00000	1676.13600
2.46346	0.00000	1676.13600
2.46729	0.00000	1676.13600
2.47111	0.00000	1676.13600
2.47493	0.00000	1676.13600
2.47875	0.00000	1676.13600
2.48257	0.00000	1671.40100
2.48641	0.00000	1671.40100
2.49022	0.00000	1671.40100
2.49405	0.00000	1671.40100
2.49786	0.00000	1664.06200
2.50169	0.00000	1664.06200
2.50551	0.00000	1664.06200
2.50934	0.00000	1666.66600
2.51316	0.00000	1666.66600
2.51697	0.00000	1666.66600
2.52080	0.00000	1666.66600
2.52462	0.00000	1680.87100
2.52845	0.00000	1680.87100
2.53230	0.00000	1680.87100
2.53614	0.00000	1693.23900
2.53996	0.00000	1693.23900
2.54378	0.00000	1693.23900
2.54761	0.00000	1688.45600
2.55143	0.00000	1688.45600
2.55526	0.00000	1688.45600
2.55908	0.00000	1688.45600
2.56291	0.00000	1671.40100
2.56673	0.00000	1671.40100
2.57055	0.00000	1671.40100
2.57438	0.00000	1671.40100
2.57820	0.00000	1671.40100
2.58203	0.00000	1671.40100
2.58585	0.00000	1671.40100
2.58968	0.00000	1680.87100
2.59350	0.00000	1680.87100
2.59732	0.00000	1680.87100
2.60114	0.00000	1688.45600
2.60496	0.00000	1688.45600
2.60878	0.00000	1688.45600
2.61261	0.00000	1688.45600
2.61642	0.00000	1680.87100
2.62024	0.00000	1680.87100
2.62406	0.00000	1680.87100
2.62788	0.00000	1666.66600
2.63170	0.00000	1666.66600
2.63553	0.00000	1666.66600
2.63935	0.00000	1671.40100
2.64317	0.00000	1671.40100
2.64700	0.00000	1671.40100
2.65081	0.00000	1671.40100
2.65463	0.00000	1676.13600
2.65846	0.00000	1676.13600
2.66228	0.00000	1676.13600
2.66610	0.00000	1688.45600
2.66992	0.00000	1688.45600
2.67375	0.00000	1688.45600
2.67757	0.00000	1688.45600
2.68140	0.00000	1680.87100
2.68522	0.00000	1680.87100
2.68905	0.00000	1680.87100
2.69287	0.00000	1666.66600
2.69669	0.00000	1666.66600
2.70051	0.00000	1666.66600
2.70434	0.00000	1666.66600
2.70816	0.00000	1659.37500
2.71198	0.00000	1659.37500
2.71580	0.00000	1659.37500
2.71962	0.00000	1671.40100
2.72345	0.00000	1671.40100
2.72726	0.00000	1671.40100
2.73108	0.00000	1666.66600
2.73490	0.00000	1666.66600
2.73873	0.00000	1666.66600
2.74255	0.00000	1666.66600
2.74637	0.00000	1676.13600
2.75020	0.00000	1676.13600
2.75402	0.00000	1676.13600
2.75784	0.00000	1666.66600
2.76166	0.00000	1666.66600
2.76548	0.00000	1666.66600
2.76930	0.00000	1666.66600
2.77312	0.00000	1664.06200
2.77694	0.00000	1664.06200
2.78076	0.00000	1664.06200
2.78458	0.00000	1671.40100
2.78840	0.00000	1671.40100
2.79224	0.00000	1671.40100
2.79605	0.00000	1671.40100
2.79987	0.00000	1676.13600
2.80370	0.00000	1676.13600
2.80753	0.00000	1676.13600
2.81135	0.00000	1688.45600
2.81517	0.00000	1688.45600
2.81899	0.00000	1688.45600
2.82281	0.00000	1688.45600
2.82663	0.00000	1688.45600
2.83045	0.00000	1688.45600
2.83426	0.00000	1688.45600
2.83808	0.00000	1680.87100
2.84191	0.00000	1680.87100
2.84573	0.00000	1680.87100
2.84955	0.00000	1671.40100
2.85337	0.00000	1671.40100
2.85719	0.00000	1671.40100
2.86102	0.00000	1671.40100
2.86484	0.00000	1680.87100
2.86866	0.00000	1680.87100
2.87248	0.00000	1680.87100
2.87632	0.00000	1683.67300
2.88014	0.00000	1683.67300
2.88397	0.00000	1683.67300
2.88779	0.00000	1671.40100
2.89161	0.00000	1671.40100
2.89544	0.00000	1671.40100
2.89926	0.00000	1671.40100
2.90309	0.00000	1671.40100
2.90691	0.00000	1671.40100
2.91074	0.00000	1671.40100
2.91456	0.00000	1666.66600
2.91838	0.00000	1666.66600
2.92221	0.00000	1666.66600
2.92603	0.00000	1666.66600
2.92986	0.00000	1664.06200
2.93368	0.00000	1664.06200
2.93750	0.00000	1664.06200
2.94133	0.00000	1671.40100
2.94516	0.00000	1671.40100
2.94898	0.00000	1671.40100
2.95281	0.00000	1671.40100
2.95663	0.00000	1676.13600
2.96046	0.00000	1676.13600
2.96428	0.00000	1676.13600
2.96811	0.00000	1671.40100
2.97193	0.00000	1671.40100
2.97572	0.00000	1671.40100
2.97954	0.00000	1666.66600
2.98336	0.00000	1666.66600
2.98718	0.00000	1666.66600
2.99100	0.00000	1666.66600
2.99482	0.00000	1671.40100
2.99864	0.00000	1671.40100
3.00246	0.00000	1671.40100
3.00627	0.00000	1671.40100
3.01011	0.00000	1671.40100
3.01393	0.00000	1671.40100
3.01775	0.00000	1671.40100
3.02158	0.00000	1680.87100
3.02541	0.00000	1680.87100
3.02923	0.00000	1680.87100
3.03305	0.00000	1671.40100
3.03688	0.00000	1671.40100
3.04071	0.00000	1671.40100
3.04453	0.00000	1671.40100
3.04836	0.00000	1654.68700
3.05217	0.00000	1654.68700
3.05600	0.00000	1654.68700
3.05982	0.00000	1666.66600
3.06364	0.00000	1666.66600
3.06747	0.00000	1666.66600
3.07129	0.00000	1671.40100
3.07511	0.00000	1671.40100
3.07893	0.00000	1671.40100
3.08276	0.00000	1671.40100
3.08658	0.00000	1676.13600
3.09040	0.00000	1676.13600
3.09423	0.00000	1676.13600
3.09805	0.00000	1683.67300
3.10188	0.00000	1683.67300
3.10570	0.00000	1683.67300
3.10952	0.00000	1683.67300
3.11334	0.00000	1668.75000
3.11716	0.00000	1668.75000
3.12099	0.00000	1668.75000
3.12482	0.00000	1671.40100
3.12865	0.00000	1671.40100
3.13247	0.00000	1671.40100
3.13629	0.00000	1671.40100
3.14011	0.00000	1676.13600
3.14393	0.00000	1676.13600
3.14772	0.00000	1676.13600
3.15154	0.00000	1688.45600
3.15536	0.00000	1688.45600
3.15918	0.00000	1688.45600
3.16300	0.00000	1688.45600
3.16684	0.00000	1688.45600
3.17066	0.00000	1688.45600
3.17448	0.00000	1688.45600
3.17830	0.00000	1676.13600
3.18212	0.00000	1676.13600
3.18595	0.00000	1676.13600
3.18976	0.00000	1666.66600
3.19358	0.00000	1666.66600
3.19740	0.00000	1666.66600
3.20123	0.00000	1666.66600
3.20505	0.00000	1676.13600
3.20887	0.00000	1676.13600
3.21269	0.00000	1676.13600
3.21651	0.00000	1688.45600
3.22033	0.00000	1688.45600
3.22415	0.00000	1688.45600
3.22797	0.00000	1688.45600
3.23180	0.00000	1676.13600
3.23562	0.00000	1676.13600
3.23943	0.00000	1676.13600
3.24327	0.00000	1671.40100
3.24708	0.00000	1671.40100
3.25091	0.00000	1671.40100
3.25474	0.00000	1666.66600
3.25857	0.00000	1666.66600
3.26239	0.00000	1666.66600
3.26621	0.00000	1666.66600
3.27004	0.00000	1659.37500
3.27386	0.00000	1659.37500
3.27768	0.00000	1659.37500
3.28151	0.00000	1666.66600
3.28533	0.00000	1666.66600
3.28915	0.00000	1666.66600
3.29298	0.00000	1666.66600
3.29680	0.00000	1676.13600
3.30063	0.00000	1676.13600
3.30445	0.00000	1676.13600
3.30828	0.00000	1666.66600
3.31210	0.00000	1666.66600
3.31591	0.00000	1666.66600
3.31972	0.00000	1666.66600
3.32354	0.00000	1666.66600
3.32735	0.00000	1666.66600
3.33117	0.00000	1666.66600
3.33499	0.00000	1688.45600
3.33880	0.00000	1688.45600
3.34262	0.00000	1688.45600
3.34644	0.00000	1683.67300
3.35026	0.00000	1683.67300
3.35409	0.00000	1683.67300
3.35791	0.00000	1683.67300
3.36173	0.00000	1680.87100
3.36555	0.00000	1680.87100
3.36937	0.00000	1680.87100
3.37320	0.00000	1671.40100
3.37702	0.00000	1671.40100
3.38087	0.00000	1671.40100
3.38469	0.00000	1671.40100
3.38851	0.00000	1664.06200
3.39233	0.00000	1664.06200
3.39615	0.00000	1664.06200
3.39997	0.00000	1671.40100
3.40379	0.00000	1671.40100
3.40761	0.00000	1671.40100
3.41143	0.00000	1666.66600
3.41525	0.00000	1666.66600
3.41907	0.00000	1666.66600
3.42289	0.00000	1666.66600
3.42671	0.00000	1676.13600
3.43053	0.00000	1676.13600
3.43436	0.00000	1676.13600
3.43817	0.00000	1666.66600
3.44200	0.00000	1666.66600
3.44582	0.00000	1666.66600
3.44964	0.00000	1666.66600
3.45347	0.00000	1659.37500
3.45729	0.00000	1659.37500
3.46111	0.00000	1659.37500
3.46494	0.00000	1671.40100
3.46876	0.00000	1671.40100
3.47258	0.00000	1671.40100
3.47640	0.00000	1671.40100
3.48022	0.00000	1676.13600
3.48404	0.00000	1676.13600
3.48786	0.00000	1676.13600
3.49168	0.00000	1683.67300
3.49551	0.00000	1683.67300
3.49934	0.00000	1683.67300
3.50315	0.00000	1671.40100
3.50697	0.00000	1671.40100
3.51079	0.00000	1671.40100
3.51461	0.00000	1671.40100
3.51843	0.00000	1676.13600
3.52225	0.00000	1676.13600
3.52607	0.00000	1676.13600
3.52989	0.00000	1671.40100
3.53372	0.00000	1671.40100
3.53755	0.00000	1671.40100
3.54137	0.00000	1671.40100
3.54519	0.00000	1680.87100
3.54901	0.00000	1680.87100
3.55283	0.00000	1680.87100
3.55665	0.00000	1683.67300
3.56048	0.00000	1683.67300
3.56430	0.00000	1683.67300
3.56813	0.00000	1683.67300
3.57195	0.00000	1671.40100
3.57577	0.00000	1671.40100
3.57959	0.00000	1671.40100
3.58342	0.00000	1671.40100
3.58723	0.00000	1671.40100
3.59106	0.00000	1671.40100
3.59488	0.00000	1666.66600
3.59871	0.00000	1666.66600
3.60253	0.00000	1666.66600
3.60636	0.00000	1666.66600
3.61018	0.00000	1680.87100
3.61400	0.00000	1680.87100
3.61782	0.00000	1680.87100
3.62164	0.00000	1688.45600
3.62546	0.00000	1688.45600
3.62928	0.00000	1688.45600
3.63310	0.00000	1688.45600
3.63693	0.00000	1680.87100
3.64075	0.00000	1680.87100
3.64457	0.00000	1680.87100
3.64840	0.00000	1671.40100
3.65222	0.00000	1671.40100
3.65605	0.00000	1671.40100
3.65987	0.00000	1671.40100
3.66369	0.00000	1671.40100
3.66752	0.00000	1671.40100
3.67135	0.00000	1671.40100
3.67517	0.00000	1688.45600
3.67899	0.00000	1688.45600
3.68281	0.00000	1688.45600
3.68663	0.00000	1688.45600
3.69047	0.00000	1688.45600
3.69429	0.00000	1688.45600
3.69811	0.00000	1688.45600
3.70194	0.00000	1685.60600
3.70576	0.00000	1685.60600
3.70958	0.00000	1685.60600
3.71340	0.00000	1671.40100
3.71722	0.00000	1671.40100
3.72105	0.00000	1671.40100
3.72487	0.00000	1671.40100
3.72869	0.00000	1664.06200
3.73251	0.00000	1664.06200
3.73633	0.00000	1664.06200
3.74015	0.00000	1666.66600
3.74397	0.00000	1666.66600
3.74779	0.00000	1666.66600
3.75162	0.00000	1671.40100
3.75544	0.00000	1671.40100
3.75926	0.00000	1671.40100
3.76308	0.00000	1671.40100
3.76690	0.00000	1671.40100
3.77072	0.00000	1671.40100
3.77455	0.00000	1671.40100
3.77837	0.00000	1688.45600
3.78219	0.00000	1688.45600
3.78600	0.00000	1688.45600
3.78982	0.00000	1688.45600
3.79365	0.00000	1685.60600
3.79747	0.00000	1685.60600
3.80129	0.00000	1685.60600
3.80511	0.00000	1666.66600
3.80894	0.00000	1666.66600
3.81276	0.00000	1666.66600
3.81658	0.00000	1666.66600
3.82040	0.00000	1676.13600
3.82421	0.00000	1676.13600
3.82804	0.00000	1676.13600
3.83186	0.00000	1693.23900
3.83568	0.00000	1693.23900
3.83950	0.00000	1693.23900
3.84332	0.00000	1688.45600
3.84714	0.00000	1688.45600
3.85096	0.00000	1688.45600
3.85478	0.00000	1688.45600
3.85860	0.00000	1671.40100
3.86242	0.00000	1671.40100
3.86624	0.00000	1671.40100
3.87007	0.00000	1671.40100
3.87390	0.00000	1671.40100
3.87772	0.00000	1671.40100
3.88155	0.00000	1671.40100
3.88537	0.00000	1664.06200
3.88919	0.00000	1664.06200
3.89302	0.00000	1664.06200
3.89684	0.00000	1671.40100
3.90066	0.00000	1671.40100
3.90448	0.00000	1671.40100
3.90830	0.00000	1671.40100
3.91213	0.00000	1680.87100
3.91595	0.00000	1680.87100
3.91976	0.00000	1680.87100
3.92359	0.00000	1688.45600
3.92741	0.00000	1688.45600
3.93123	0.00000	1688.45600
3.93505	0.00000	1671.40100
3.93888	0.00000	1671.40100
3.94270	0.00000	1671.40100
3.94652	0.00000	1671.40100
3.95034	0.00000	1676.13600
3.95417	0.00000	1676.13600
3.95799	0.00000	1676.13600
3.96182	0.00000	1666.66600
3.96564	0.00000	1666.66600
3.96946	0.00000	1666.66600
3.97328	0.00000	1666.66600
3.97710	0.00000	1685.60600
3.98092	0.00000	1685.60600
3.98473	0.00000	1685.60600
3.98856	0.00000	1688.45600
3.99237	0.00000	1688.45600
3.99619	0.00000	1688.45600
4.00002	0.00000	1688.45600
4.00384	0.00000	1676.13600
4.00766	0.00000	1676.13600
4.01148	0.00000	1676.13600
4.01530	0.00000	1671.40100
4.01913	0.00000	1671.40100
4.02296	0.00000	1671.40100
4.02678	0.00000	1666.66600
4.03060	0.00000	1666.66600
4.03443	0.00000	1666.66600
4.03826	0.00000	1666.66600
4.04208	0.00000	1676.13600
4.04590	0.00000	1676.13600
4.04972	0.00000	1676.13600
4.05354	0.00000	1688.45600
4.05737	0.00000	1688.45600
4.06119	0.00000	1688.45600
4.06501	0.00000	1688.45600
4.06883	0.00000	1680.87100
4.07265	0.00000	1680.87100
4.07648	0.00000	1680.87100
4.08030	0.00000	1676.13600
4.08412	0.00000	1676.13600
4.08794	0.00000	1676.13600
4.09177	0.00000	1676.13600
4.09558	0.00000	1676.13600
4.09940	0.00000	1676.13600
4.10323	0.00000	1676.13600
4.10705	0.00000	1671.40100
4.11087	0.00000	1671.40100
4.11469	0.00000	1671.40100
4.11852	0.00000	1671.40100
4.12235	0.00000	1671.40100
4.12618	0.00000	1671.40100
4.13001	0.00000	1671.40100
4.13383	0.00000	1680.87100
4.13765	0.00000	1680.87100
4.14146	0.00000	1680.87100
4.14529	0.00000	1688.45600
4.14912	0.00000	1688.45600
4.15293	0.00000	1688.45600
4.15676	0.00000	1688.45600
4.16058	0.00000	1685.60600
4.16440	0.00000	1685.60600
4.16822	0.00000	1685.60600
4.17206	0.00000	1676.13600
4.17587	0.00000	1676.13600
4.17970	0.00000	1676.13600
4.18353	0.00000	1676.13600
4.18735	0.00000	1676.13600
4.19117	0.00000	1676.13600
4.19500	0.00000	1676.13600
4.19881	0.00000	1676.13600
4.20263	0.00000	1676.13600
4.20646	0.00000	1676.13600
4.21028	0.00000	1671.40100
4.21410	0.00000	1671.40100
4.21792	0.00000	1671.40100
4.22174	0.00000	1671.40100
4.22556	0.00000	1685.60600
4.22938	0.00000	1685.60600
4.23320	0.00000	1685.60600
4.23701	0.00000	1688.45600
4.24083	0.00000	1688.45600
4.24465	0.00000	1688.45600
4.24847	0.00000	1688.45600
4.25229	0.00000	1685.60600
4.25612	0.00000	1685.60600
4.25995	0.00000	1685.60600
4.26377	0.00000	1671.40100
4.26760	0.00000	1671.40100
4.27142	0.00000	1671.40100
4.27523	0.00000	1671.40100
4.27905	0.00000	1671.40100
4.28288	0.00000	1671.40100
4.28670	0.00000	1671.40100
4.29053	0.00000	1676.13600
4.29435	0.00000	1676.13600
4.29818	0.00000	1676.13600
4.30201	0.00000	1676.13600
4.30582	0.00000	1676.13600
4.30964	0.00000	1676.13600
4.31346	0.00000	1676.13600
4.31728	0.00000	1685.60600
4.32111	0.00000	1685.60600
4.32492	0.00000	1685.60600
4.32875	0.00000	1693.23900
4.33257	0.00000	1693.23900
4.33639	0.00000	1693.23900
4.34021	0.00000	1693.23900
4.34403	0.00000	1685.60600
4.34785	0.00000	1685.60600
4.35166	0.00000	1685.60600
4.35549	0.00000	1671.40100
4.35932	0.00000	1671.40100
4.36314	0.00000	1671.40100
4.36697	0.00000	1671.40100
4.37079	0.00000	1671.40100
4.37461	0.00000	1671.40100
4.37843	0.00000	1671.40100
4.38225	0.00000	1671.40100
4.38607	0.00000	1671.40100
4.38989	0.00000	1671.40100
4.39371	0.00000	1688.45600
4.39754	0.00000	1688.45600
4.40136	0.00000	1688.45600
4.40518	0.00000	1688.45600
4.40901	0.00000	1690.34000
4.41283	0.00000	1690.34000
4.41665	0.00000	1690.34000
4.42048	0.00000	1693.23900
4.42430	0.00000	1693.23900
4.42812	0.00000	1693.23900
4.43194	0.00000	1693.23900
4.43572	0.00000	1685.60600
4.43954	0.00000	1685.60600
4.44336	0.00000	1685.60600
4.44718	0.00000	1676.13600
4.45100	0.00000	1676.13600
4.45483	0.00000	1676.13600
4.45865	0.00000	1671.40100
4.46248	0.00000	1671.40100
4.46630	0.00000	1671.40100
4.47011	0.00000	1671.40100
4.47393	0.00000	1680.87100
4.47776	0.00000	1680.87100
4.48159	0.00000	1680.87100
4.48541	0.00000	1676.13600
4.48924	0.00000	1676.13600
4.49306	0.00000	1676.13600
4.49687	0.00000	1676.13600
4.50070	0.00000	1685.60600
4.50452	0.00000	1685.60600
4.50833	0.00000	1685.60600
4.51216	0.00000	1688.45600
4.51598	0.00000	1688.45600
4.51980	0.00000	1688.45600
4.52363	0.00000	1688.45600
4.52745	0.00000	1680.87100
4.53126	0.00000	1680.87100
4.53509	0.00000	1680.87100
4.53891	0.00000	1671.40100
4.54273	0.00000	1671.40100
4.54655	0.00000	1671.40100
4.55037	0.00000	1671.40100
4.55419	0.00000	1671.40100
4.55802	0.00000	1671.40100
4.56184	0.00000	1671.40100
4.56566	0.00000	1680.87100
4.56949	0.00000	1680.87100
4.57332	0.00000	1680.87100
4.57714	0.00000	1676.13600
4.58096	0.00000	1676.13600
4.58479	0.00000	1676.13600
4.58860	0.00000	1676.13600
4.59244	0.00000	1685.60600
4.59626	0.00000	1685.60600
4.60008	0.00000	1685.60600
4.60390	0.00000	1688.45600
4.60772	0.00000	1688.45600
4.61154	0.00000	1688.45600
4.61537	0.00000	1688.45600
4.61918	0.00000	1680.87100
4.62300	0.00000	1680.87100
4.62682	0.00000	1680.87100
4.63064	0.00000	1676.13600
4.63446	0.00000	1676.13600
4.63828	0.00000	1676.13600
4.64210	0.00000	1671.40100
4.64593	0.00000	1671.40100
4.64974	0.00000	1671.40100
4.65356	0.00000	1671.40100
4.65738	0.00000	1685.60600
4.66120	0.00000	1685.60600
4.66502	0.00000	1685.60600
4.66884	0.00000	1671.40100
4.67266	0.00000	1671.40100
4.67648	0.00000	1671.40100
4.68030	0.00000	1671.40100
4.68412	0.00000	1680.87100
4.68795	0.00000	1680.87100
4.69177	0.00000	1680.87100
4.69560	0.00000	1693.23900
4.69942	0.00000	1693.23900
4.70324	0.00000	1693.23900
4.70705	0.00000	1693.23900
4.71087	0.00000	1676.13600
4.71469	0.00000	1676.13600
4.71851	0.00000	1676.13600
4.72233	0.00000	1671.40100
4.72615	0.00000	1671.40100
4.72998	0.00000	1671.40100
4.73381	0.00000	1676.13600
4.73763	0.00000	1676.13600
4.74145	0.00000	1676.13600
4.74528	0.00000	1676.13600
4.74909	0.00000	1664.06200
4.75292	0.00000	1664.06200
4.75675	0.00000	1664.06200
4.76057	0.00000	1676.13600
4.76440	0.00000	1676.13600
4.76822	0.00000	1676.13600
4.77204	0.00000	1676.13600
4.77586	0.00000	1680.87100
4.77968	0.00000	1680.87100
4.78351	0.00000	1680.87100
4.78734	0.00000	1688.45600
4.79115	0.00000	1688.45600
4.79498	0.00000	1688.45600
4.79880	0.00000	1688.45600
4.80262	0.00000	1680.87100
4.80644	0.00000	1680.87100
4.81026	0.00000	1680.87100
4.81409	0.00000	1671.40100
4.81792	0.00000	1671.40100
4.82174	0.00000	1671.40100
4.82557	0.00000	1671.40100
4.82939	0.00000	1671.40100
4.83321	0.00000	1671.40100
4.83703	0.00000	1671.40100
4.84085	0.00000	1668.75000
4.84468	0.00000	1668.75000
4.84850	0.00000	1668.75000
4.85233	0.00000	1671.40100
4.85615	0.00000	1671.40100
4.85997	0.00000	1671.40100
4.86380	0.00000	1671.40100
4.86763	0.00000	1685.60600
4.87144	0.00000	1685.60600
4.87526	0.00000	1685.60600
4.87908	0.00000	1688.45600
4.88290	0.00000	1688.45600
4.88672	0.00000	1688.45600
4.89054	0.00000	1688.45600
4.89437	0.00000	1688.45600
4.89819	0.00000	1688.45600
4.90200	0.00000	1688.45600
4.90583	0.00000	1680.87100
4.90965	0.00000	1680.87100
4.91347	0.00000	1680.87100
4.91729	0.00000	1671.40100
4.92111	0.00000	1671.40100
4.92494	0.00000	1671.40100
4.92876	0.00000	1671.40100
4.93258	0.00000	1668.75000
4.93640	0.00000	1668.75000
4.94022	0.00000	1668.75000
4.94404	0.00000	1688.45600
4.94787	0.00000	1688.45600
4.95169	0.00000	1688.45600
4.95552	0.00000	1688.45600
4.95934	0.00000	1680.87100
4.96316	0.00000	1680.87100
4.96698	0.00000	1680.87100
4.97080	0.00000	1676.13600
4.97462	0.00000	1676.13600
4.97845	0.00000	1676.13600
4.98227	0.00000	1676.13600
4.98609	0.00000	1676.13600
4.98991	0.00000	1676.13600
4.99373	0.00000	1676.13600
4.99755	0.00000	1676.13600
5.00186	0.00000	1676.13600
5.00573	0.00000	1676.13600
5.00957	0.00000	1676.13600
5.01340	0.00000	1676.13600
5.01726	0.00000	1676.13600
5.02109	0.00000	1676.13600
5.02493	0.00000	1685.60600
5.02878	0.00000	1685.60600
5.03265	0.00000	1685.60600
5.03651	0.00000	1907.16900
5.04036	0.00000	1907.16900
5.04422	0.00000	1907.16900
5.04805	0.00000	1907.16900
5.05189	0.00000	2242.99000
5.05572	0.00000	2242.99000
5.05956	0.00000	2242.99000
5.06340	0.00000	2242.99000
5.06723	0.00000	2504.22300
5.07106	0.00000	2504.22300
5.07489	0.00000	2504.22300
5.07872	0.00000	2504.22300
5.08254	0.00000	2695.31200
5.08637	0.00000	2695.31200
5.09020	0.00000	2695.31200
5.09405	0.00000	2695.31200
5.09788	0.00000	2891.28100
5.10172	0.00000	2891.28100
5.10555	0.00000	2891.28100
5.10940	0.00000	2891.28100
5.11323	0.00000	3031.50600
5.11707	0.00000	3031.50600
5.12090	0.00000	3031.50600
5.12473	0.00000	3031.50600
5.12856	0.00000	3171.62300
5.13239	0.00000	3171.62300
5.13623	0.00000	3171.62300
5.14006	0.00000	3171.62300
5.14389	0.00000	3262.79500
5.14772	0.00000	3262.79500
5.15155	0.00000	3262.79500
5.15539	0.00000	3262.79500
5.15922	0.00000	3262.79500
5.16305	0.00000	3386.62800
5.16688	0.00000	3386.62800
5.17070	0.00000	3386.62800
5.17453	0.00000	3386.62800
5.17836	0.00000	3461.53800
5.18219	0.00000	3461.53800
5.18603	0.00000	3461.53800
5.18986	0.00000	3461.53800
5.19369	0.00000	3461.53800
5.19752	0.00000	3535.00900
5.20136	0.00000	3535.00900
5.20519	0.00000	3535.00900
5.20904	0.00000	3535.00900
5.21287	0.00000	3589.08500
5.21670	0.00000	3589.08500
5.22053	0.00000	3589.08500
5.22437	0.00000	3589.08500
5.22821	0.00000	3589.08500
5.23204	0.00000	3632.81200
5.23587	0.00000	3632.81200
5.23972	0.00000	3632.81200
5.24355	0.00000	3632.81200
5.24738	0.00000	3632.81200
5.25121	0.00000	3705.52000
5.25505	0.00000	3705.52000
5.25888	0.00000	3705.52000
5.26271	0.00000	3705.52000
5.26654	0.00000	3746.57800
5.27037	0.00000	3746.57800
5.27420	0.00000	3746.57800
5.27804	0.00000	3746.57800
5.28186	0.00000	3746.57800
5.28570	0.00000	3763.48900
5.28953	0.00000	3763.48900
5.29336	0.00000	3763.48900
5.29720	0.00000	3763.48900
5.30102	0.00000	3763.48900
5.30485	0.00000	3803.57100
5.30868	0.00000	3803.57100
5.31250	0.00000	3803.57100
5.31634	0.00000	3803.57100
5.32017	0.00000	3803.57100
5.32401	0.00000	3823.13800
5.32784	0.00000	3823.13800
5.33168	0.00000	3823.13800
5.33551	0.00000	3823.13800
5.33934	0.00000	3823.13800
5.34318	0.00000	3843.08500
5.34701	0.00000	3843.08500
5.35085	0.00000	3843.08500
5.35467	0.00000	3843.08500
5.35851	0.00000	3866.35600
5.36235	0.00000	3866.35600
5.36618	0.00000	3866.35600
5.37001	0.00000	3866.35600
5.37385	0.00000	3866.35600
5.37768	0.00000	3885.34300
5.38152	0.00000	3885.34300
5.38535	0.00000	3885.34300
5.38918	0.00000	3885.34300
5.39301	0.00000	3885.34300
5.39685	0.00000	3894.23100
5.40069	0.00000	3894.23100
5.40452	0.00000	3894.23100
5.40834	0.00000	3894.23100
5.41218	0.00000	3894.23100
5.41601	0.00000	3917.17600
5.41984	0.00000	3917.17600
5.42367	0.00000	3917.17600
5.42751	0.00000	3917.17600
5.43133	0.00000	3917.17600
5.43516	0.00000	3943.40000
5.43899	0.00000	3943.40000
5.44282	0.00000	3943.40000
5.44664	0.00000	3943.40000
5.45048	0.00000	3943.40000
5.45431	0.00000	3959.79000
5.45814	0.00000	3959.79000
5.46199	0.00000	3959.79000
5.46583	0.00000	3959.79000
5.46966	0.00000	3959.79000
5.47350	0.00000	3945.31200
5.47733	0.00000	3945.31200
5.48116	0.00000	3945.31200
5.48499	0.00000	3945.31200
5.48882	0.00000	3945.31200
5.49265	0.00000	3948.56700
5.49648	0.00000	3948.56700
5.50031	0.00000	3948.56700
5.50414	0.00000	3948.56700
5.50797	0.00000	3951.82200
5.51180	0.00000	3951.82200
5.51562	0.00000	3951.82200
5.51945	0.00000	3951.82200
5.52328	0.00000	3951.82200
5.52711	0.00000	3958.33300
5.53094	0.00000	3958.33300
5.53478	0.00000	3958.33300
5.53861	0.00000	3958.33300
5.54244	0.00000	3958.33300
5.54627	0.00000	3987.63000
5.55010	0.00000	3987.63000
5.55393	0.00000	3987.63000
5.55775	0.00000	3987.63000
5.56159	0.00000	3987.63000
5.56542	0.00000	4000.65100
5.56926	0.00000	4000.65100
5.57311	0.00000	4000.65100
5.57694	0.00000	4000.65100
5.58078	0.00000	4000.65100
5.58462	0.00000	4007.16100
5.58845	0.00000	4007.16100
5.59228	0.00000	4007.16100
5.59611	0.00000	4007.16100
5.59994	0.00000	4007.16100
5.60378	0.00000	3985.99100
5.60761	0.00000	3985.99100
5.61145	0.00000	3985.99100
5.61528	0.00000	3985.99100
5.61911	0.00000	3985.99100
5.62294	0.00000	4013.67200
5.62678	0.00000	4013.67200
5.63062	0.00000	4013.67200
5.63445	0.00000	4013.67200
5.63827	0.00000	4013.67200
5.64210	0.00000	4023.43700
5.64593	0.00000	4023.43700
5.64976	0.00000	4023.43700
5.65358	0.00000	4023.43700
5.65742	0.00000	4023.43700
5.66126	0.00000	3998.92200
5.66508	0.00000	3998.92200
5.66891	0.00000	3998.92200
5.67274	0.00000	3998.92200
5.67658	0.00000	3998.92200
5.68040	0.00000	3982.75800
5.68423	0.00000	3982.75800
5.68806	0.00000	3982.75800
5.69189	0.00000	3982.75800
5.69572	0.00000	3982.75800
5.69954	0.00000	3995.68900
5.70337	0.00000	3995.68900
5.70721	0.00000	3995.68900
5.71105	0.00000	3995.68900
5.71488	0.00000	3995.68900
5.71871	0.00000	4005.38800
5.72254	0.00000	4005.38800
5.72637	0.00000	4005.38800
5.73020	0.00000	4005.38800
5.73403	0.00000	4005.38800
5.73786	0.00000	3998.92200
5.74170	0.00000	3998.92200
5.74554	0.00000	3998.92200
5.74937	0.00000	3998.92200
5.75321	0.00000	3998.92200
5.75704	0.00000	4011.85300
5.76087	0.00000	4011.85300
5.76471	0.00000	4011.85300
5.76853	0.00000	4011.85300
5.77236	0.00000	4011.85300
5.77619	0.00000	4005.38800
5.78003	0.00000	4005.38800
5.78386	0.00000	4005.38800
5.78769	0.00000	4005.38800
5.79153	0.00000	4005.38800
5.79536	0.00000	4015.08600
5.79920	0.00000	4015.08600
5.80301	0.00000	4015.08600
5.80684	0.00000	4015.08600
5.81067	0.00000	4015.08600
5.81450	0.00000	4011.85300
5.81832	0.00000	4011.85300
5.82214	0.00000	4011.85300
5.82597	0.00000	4011.85300
5.82980	0.00000	4011.85300
5.83364	0.00000	4008.62000
5.83747	0.00000	4008.62000
5.84130	0.00000	4008.62000
5.84512	0.00000	4008.62000
5.84895	0.00000	4008.62000
5.85277	0.00000	4008.62000
5.85660	0.00000	4008.62000
5.86042	0.00000	4008.62000
5.86425	0.00000	4008.62000
5.86808	0.00000	4008.62000
5.87190	0.00000	3995.68900
5.87572	0.00000	3995.68900
5.87954	0.00000	3995.68900
5.88336	0.00000	3995.68900
5.88717	0.00000	4013.67200
5.89098	0.00000	4013.67200
5.89480	0.00000	4013.67200
5.89862	0.00000	4013.67200
5.90244	0.00000	4013.67200
5.90627	0.00000	4020.18200
5.91008	0.00000	4020.18200
5.91390	0.00000	4020.18200
5.91773	0.00000	4020.18200
5.92154	0.00000	4020.18200
5.92536	0.00000	4020.18200
5.92919	0.00000	4020.18200
5.93301	0.00000	4020.18200
5.93683	0.00000	4020.18200
5.94065	0.00000	4020.18200
5.94447	0.00000	4033.20300
5.94829	0.00000	4033.20300
5.95211	0.00000	4033.20300
5.95594	0.00000	4033.20300
5.95972	0.00000	4033.20300
5.96354	0.00000	4018.31800
5.96736	0.00000	4018.31800
5.97117	0.00000	4018.31800
5.97499	0.00000	4018.31800
5.97881	0.00000	4018.31800
5.98264	0.00000	4008.62000
5.98647	0.00000	4008.62000
5.99031	0.00000	4008.62000
5.99414	0.00000	4008.62000
5.99796	0.00000	4008.62000
6.00179	0.00000	4021.55100
6.00562	0.00000	4021.55100
6.00945	0.00000	4021.55100
6.01332	0.00000	4021.55100
6.01716	0.00000	4021.55100
6.02100	0.00000	3994.00600
6.02483	0.00000	3994.00600
6.02866	0.00000	3994.00600
6.03249	0.00000	3994.00600
6.03632	0.00000	3994.00600
6.04015	0.00000	4005.38800
6.04398	0.00000	4005.38800
6.04781	0.00000	4005.38800
6.05164	0.00000	4005.38800
6.05547	0.00000	4005.38800
6.05930	0.00000	4015.08600
6.06313	0.00000	4015.08600
6.06695	0.00000	4015.08600
6.07079	0.00000	4015.08600
6.07462	0.00000	4015.08600
6.07845	0.00000	4028.01700
6.08229	0.00000	4028.01700
6.08612	0.00000	4028.01700
6.08995	0.00000	4028.01700
6.09378	0.00000	4028.01700
6.09761	0.00000	3997.21700
6.10148	0.00000	3997.21700
6.10533	0.00000	3997.21700
6.10918	0.00000	3997.21700
6.11300	0.00000	3997.21700
6.11683	0.00000	4018.31800
6.12067	0.00000	4018.31800
6.12450	0.00000	4018.31800
6.12834	0.00000	4018.31800
6.13217	0.00000	4018.31800
6.13600	0.00000	4021.55100
6.13982	0.00000	4021.55100
6.14365	0.00000	4021.55100
6.14748	0.00000	4021.55100
6.15131	0.00000	4021.55100
6.15514	0.00000	3990.79600
6.15898	0.00000	3990.79600
6.16281	0.00000	3990.79600
6.16665	0.00000	3990.79600
6.17047	0.00000	3990.79600
6.17430	0.00000	4018.31800
6.17813	0.00000	4018.31800
6.18196	0.00000	4018.31800
6.18578	0.00000	4018.31800
6.18961	0.00000	4018.31800
6.19344	0.00000	3994.00600
6.19727	0.00000	3994.00600
6.20110	0.00000	3994.00600
6.20493	0.00000	3994.00600
6.20876	0.00000	3994.00600
6.21259	0.00000	4024.78400
6.21642	0.00000	4024.78400
6.22025	0.00000	4024.78400
6.22408	0.00000	4024.78400
6.22791	0.00000	4024.78400
6.23172	0.00000	4011.85300
6.23555	0.00000	4011.85300
6.23938	0.00000	4011.85300
6.24321	0.00000	4011.85300
6.24704	0.00000	4011.85300
6.25087	0.00000	4021.55100
6.25470	0.00000	4021.55100
6.25853	0.00000	4021.55100
6.26236	0.00000	4021.55100
6.26619	0.00000	4021.55100
6.27001	0.00000	4021.55100
6.27384	0.00000	4021.55100
6.27767	0.00000	4021.55100
6.28150	0.00000	4021.55100
6.28533	0.00000	4021.55100
6.28916	0.00000	3997.21700
6.29299	0.00000	3997.21700
6.29681	0.00000	3997.21700
6.30064	0.00000	3997.21700
6.30447	0.00000	3997.21700
6.30830	0.00000	4028.01700
6.31213	0.00000	4028.01700
6.31596	0.00000	4028.01700
6.31979	0.00000	4028.01700
6.32362	0.00000	4028.01700
6.32745	0.00000	4018.31800
6.33128	0.00000	4018.31800
6.33511	0.00000	4018.31800
6.33893	0.00000	4018.31800
6.34276	0.00000	4018.31800
6.34660	0.00000	3997.21700
6.35044	0.00000	3997.21700
6.35427	0.00000	3997.21700
6.35809	0.00000	3997.21700
6.36193	0.00000	3997.21700
6.36576	0.00000	4021.55100
6.36958	0.00000	4021.55100
6.37342	0.00000	4021.55100
6.37725	0.00000	4021.55100
6.38108	0.00000	4021.55100
6.38490	0.00000	4015.08600
6.38873	0.00000	4015.08600
6.39256	0.00000	4015.08600
6.39639	0.00000	4015.08600
6.40025	0.00000	4015.08600
6.40409	0.00000	4008.62000
6.40792	0.00000	4008.62000
6.41172	0.00000	4008.62000
6.41555	0.00000	4008.62000
6.41939	0.00000	3989.22400
6.42321	0.00000	3989.22400
6.42703	0.00000	3989.22400
6.43086	0.00000	3989.22400
6.43470	0.00000	3989.22400
6.43853	0.00000	4026.69200
6.44235	0.00000	4026.69200
6.44619	0.00000	4026.69200
6.45002	0.00000	4026.69200
6.45384	0.00000	4026.69200
6.45767	0.00000	4033.20300
6.46150	0.00000	4033.20300
6.46533	0.00000	4033.20300
6.46916	0.00000	4033.20300
6.47299	0.00000	4033.20300
6.47683	0.00000	4015.08600
6.48067	0.00000	4015.08600
6.48451	0.00000	4015.08600
6.48834	0.00000	4015.08600
6.49217	0.00000	4015.08600
6.49600	0.00000	4011.85300
6.49984	0.00000	4011.85300
6.50367	0.00000	4011.85300
6.50750	0.00000	4011.85300
6.51133	0.00000	4011.85300
6.51516	0.00000	4018.31800
6.51899	0.00000	4018.31800
6.52282	0.00000	4018.31800
6.52665	0.00000	4018.31800
6.53054	0.00000	4018.31800
6.53440	0.00000	4021.55100
6.53825	0.00000	4021.55100
6.54209	0.00000	4021.55100
6.54591	0.00000	4021.55100
6.54974	0.00000	4021.55100
6.55358	0.00000	4015.08600
6.55741	0.00000	4015.08600
6.56123	0.00000	4015.08600
6.56506	0.00000	4015.08600
6.56890	0.00000	4015.08600
6.57273	0.00000	4008.62000
6.57656	0.00000	4008.62000
6.58038	0.00000	4008.62000
6.58421	0.00000	4008.62000
6.58804	0.00000	4008.62000
6.59187	0.00000	4011.85300
6.59570	0.00000	4011.85300
6.59955	0.00000	4011.85300
6.60337	0.00000	4011.85300
6.60721	0.00000	4011.85300
6.61103	0.00000	4021.55100
6.61486	0.00000	4021.55100
6.61869	0.00000	4021.55100
6.62252	0.00000	4021.55100
6.62637	0.00000	4021.55100
6.63020	0.00000	4018.31800
6.63403	0.00000	4018.31800
6.63785	0.00000	4018.31800
6.64189	0.00000	4018.31800
6.64579	0.00000	4018.31800
6.64964	0.00000	3994.00600
6.65348	0.00000	3994.00600
6.65733	0.00000	3994.00600
6.66117	0.00000	3994.00600
6.66501	0.00000	3994.00600
6.66884	0.00000	4021.55100
6.67267	0.00000	4021.55100
6.67650	0.00000	4021.55100
6.68034	0.00000	4021.55100
6.68417	0.00000	4021.55100
6.68801	0.00000	4021.55100
6.69183	0.00000	4021.55100
6.69566	0.00000	4021.55100
6.69951	0.00000	4021.55100
6.70334	0.00000	4021.55100
6.70716	0.00000	4021.55100
6.71099	0.00000	4021.55100
6.71482	0.00000	4021.55100
6.71865	0.00000	4021.55100
6.72248	0.00000	4021.55100
6.72631	0.00000	4024.78400
6.73015	0.00000	4024.78400
6.73398	0.00000	4024.78400
6.73781	0.00000	4024.78400
6.74164	0.00000	4024.78400
6.74547	0.00000	4000.42800
6.74930	0.00000	4000.42800
6.75313	0.00000	4000.42800
6.75696	0.00000	4000.42800
6.76078	0.00000	4000.42800
6.76461	0.00000	4015.08600
6.76844	0.00000	4015.08600
6.77227	0.00000	4015.08600
6.77610	0.00000	4015.08600
6.77993	0.00000	4015.08600
6.78372	0.00000	4018.31800
6.78754	0.00000	4018.31800
6.79137	0.00000	4018.31800
6.79519	0.00000	4018.31800
6.79902	0.00000	4018.31800
6.80286	0.00000	4011.85300
6.80669	0.00000	4011.85300
6.81052	0.00000	4011.85300
6.81435	0.00000	4011.85300
6.81818	0.00000	4011.85300
6.82201	0.00000	4018.31800
6.82584	0.00000	4018.31800
6.82967	0.00000	4018.31800
6.83350	0.00000	4018.31800
6.83733	0.00000	4018.31800
6.84115	0.00000	4002.15500
6.84498	0.00000	4002.15500
6.84881	0.00000	4002.15500
6.85264	0.00000	4002.15500
6.85647	0.00000	4002.15500
6.86030	0.00000	4005.38800
6.86414	0.00000	4005.38800
6.86796	0.00000	4005.38800
6.87179	0.00000	4005.38800
6.87562	0.00000	4029.94800
6.87944	0.00000	4029.94800
6.88327	0.00000	4029.94800
6.88710	0.00000	4029.94800
6.89093	0.00000	4029.94800
6.89478	0.00000	4026.69200
6.89860	0.00000	4026.69200
6.90244	0.00000	4026.69200
6.90626	0.00000	4026.69200
6.91009	0.00000	4026.69200
6.91392	0.00000	4005.38800
6.91775	0.00000	4005.38800
6.92158	0.00000	4005.38800
6.92543	0.00000	4005.38800
6.92926	0.00000	4005.38800
6.93308	0.00000	4008.62000
6.93692	0.00000	4008.62000
6.94075	0.00000	4008.62000
6.94458	0.00000	4008.62000
6.94841	0.00000	4008.62000
6.95224	0.00000	4024.78400
6.95606	0.00000	4024.78400
6.95990	0.00000	4024.78400
6.96372	0.00000	4024.78400
6.96755	0.00000	4024.78400
6.97138	0.00000	3997.21700
6.97523	0.00000	3997.21700
6.97905	0.00000	3997.21700
6.98288	0.00000	3997.21700
6.98671	0.00000	3997.21700
6.99054	0.00000	4031.25000
6.99436	0.00000	4031.25000
6.99819	0.00000	4031.25000
7.00202	0.00000	4031.25000
7.00585	0.00000	4031.25000
7.00968	0.00000	4015.08600
7.01351	0.00000	4015.08600
7.01734	0.00000	4015.08600
7.02118	0.00000	4015.08600
7.02501	0.00000	4015.08600
7.02884	0.00000	4000.42800
7.03266	0.00000	4000.42800
7.03649	0.00000	4000.42800
7.04032	0.00000	4000.42800
7.04415	0.00000	4000.42800
7.04798	0.00000	4018.31800
7.05182	0.00000	4018.31800
7.05565	0.00000	4018.31800
7.05947	0.00000	4018.31800
7.06330	0.00000	4018.31800
7.06713	0.00000	4000.42800
7.07096	0.00000	4000.42800
7.07479	0.00000	4000.42800
7.07862	0.00000	4000.42800
7.08244	0.00000	4000.42800
7.08627	0.00000	4021.55100
7.09011	0.00000	4021.55100
7.09394	0.00000	4021.55100
7.09777	0.00000	4021.55100
7.10160	0.00000	4021.55100
7.10542	0.00000	4015.08600
7.10925	0.00000	4015.08600
7.11308	0.00000	4015.08600
7.11690	0.00000	4015.08600
7.12074	0.00000	4015.08600
7.12456	0.00000	3997.21700
7.12839	0.00000	3997.21700
7.13222	0.00000	3997.21700
7.13605	0.00000	3997.21700
7.13987	0.00000	3997.21700
7.14370	0.00000	4018.31800
7.14754	0.00000	4018.31800
7.15137	0.00000	4018.31800
7.15520	0.00000	4018.31800
7.15903	0.00000	4018.31800
7.16285	0.00000	4028.01700
7.16668	0.00000	4028.01700
7.17051	0.00000	4028.01700
7.17434	0.00000	4028.01700
7.17817	0.00000	4028.01700
7.18200	0.00000	4000.42800
7.18582	0.00000	4000.42800
7.18965	0.00000	4000.42800
7.19348	0.00000	4000.42800
7.19731	0.00000	4000.42800
7.20113	0.00000	4015.08600
7.20496	0.00000	4015.08600
7.20879	0.00000	4015.08600
7.21262	0.00000	4015.08600
7.21645	0.00000	4015.08600
7.22029	0.00000	3987.58500
7.22411	0.00000	3987.58500
7.22794	0.00000	3987.58500
7.23177	0.00000	3987.58500
7.23561	0.00000	3987.58500
7.23944	0.00000	4015.08600
7.24327	0.00000	4015.08600
7.24711	0.00000	4015.08600
7.25094	0.00000	4015.08600
7.25477	0.00000	4015.08600
7.25861	0.00000	3997.21700
7.26244	0.00000	3997.21700
7.26627	0.00000	3997.21700
7.27010	0.00000	3997.21700
7.27393	0.00000	3997.21700
7.27776	0.00000	4021.55100
7.28160	0.00000	4021.55100
7.28543	0.00000	4021.55100
7.28927	0.00000	4021.55100
7.29311	0.00000	4021.55100
7.29694	0.00000	4021.55100
7.30077	0.00000	4021.55100
7.30459	0.00000	4021.55100
7.30842	0.00000	4021.55100
7.31226	0.00000	4021.55100
7.31609	0.00000	3997.21700
7.31992	0.00000	3997.21700
7.32372	0.00000	3997.21700
7.32756	0.00000	3997.21700
7.33138	0.00000	3997.21700
7.33521	0.00000	4024.78400
7.33903	0.00000	4024.78400
7.34286	0.00000	4024.78400
7.34669	0.00000	4024.78400
7.35051	0.00000	4024.78400
7.35434	0.00000	4031.25000
7.35817	0.00000	4031.25000
7.36200	0.00000	4031.25000
7.36582	0.00000	4031.25000
7.36966	0.00000	4031.25000
7.37349	0.00000	4005.38800
7.37731	0.00000	4005.38800
7.38115	0.00000	4005.38800
7.38499	0.00000	4005.38800
7.38883	0.00000	4005.38800
7.39266	0.00000	4005.38800
7.39649	0.00000	4005.38800
7.40033	0.00000	4005.38800
7.40417	0.00000	4005.38800
7.40800	0.00000	4002.15500
7.41182	0.00000	4002.15500
7.41566	0.00000	4002.15500
7.41949	0.00000	4002.15500
7.42332	0.00000	4002.15500
7.42715	0.00000	3998.92200
7.43099	0.00000	3998.92200
7.43482	0.00000	3998.92200
7.43865	0.00000	3998.92200
7.44249	0.00000	3998.92200
7.44631	0.00000	4008.62000
7.45016	0.00000	4008.62000
7.45398	0.00000	4008.62000
7.45781	0.00000	4008.62000
7.46164	0.00000	4008.62000
7.46547	0.00000	4018.31800
7.46930	0.00000	4018.31800
7.47314	0.00000	4018.31800
7.47697	0.00000	4018.31800
7.48080	0.00000	4018.31800
7.48463	0.00000	4021.55100
7.48846	0.00000	4021.55100
7.49230	0.00000	4021.55100
7.49613	0.00000	4021.55100
7.49997	0.00000	4021.55100
7.50380	0.00000	4024.78400
7.50763	0.00000	4024.78400
7.51146	0.00000	4024.78400
7.51528	0.00000	4024.78400
7.51911	0.00000	4024.78400
7.52293	0.00000	4011.85300
7.52678	0.00000	4011.85300
7.53061	0.00000	4011.85300
7.53444	0.00000	4011.85300
7.53828	0.00000	4011.85300
7.54211	0.00000	4028.01700
7.54594	0.00000	4028.01700
7.54977	0.00000	4028.01700
7.55360	0.00000	4028.01700
7.55744	0.00000	4028.01700
7.56127	0.00000	3990.79600
7.56510	0.00000	3990.79600
7.56892	0.00000	3990.79600
7.57275	0.00000	3990.79600
7.57659	0.00000	3990.79600
7.58043	0.00000	4006.84900
7.58426	0.00000	4006.84900
7.58809	0.00000	4006.84900
7.59191	0.00000	4006.84900
7.59572	0.00000	4006.84900
7.59955	0.00000	4011.85300
7.60337	0.00000	4011.85300
7.60719	0.00000	4011.85300
7.61102	0.00000	4011.85300
7.61485	0.00000	4011.85300
7.61867	0.00000	4011.85300
7.62251	0.00000	4011.85300
7.62635	0.00000	4011.85300
7.63018	0.00000	4011.85300
7.63400	0.00000	4011.85300
7.63784	0.00000	4028.01700
7.64167	0.00000	4028.01700
7.64550	0.00000	4028.01700
7.64932	0.00000	4028.01700
7.65315	0.00000	4028.01700
7.65698	0.00000	4021.55100
7.66082	0.00000	4021.55100
7.66465	0.00000	4021.55100
7.66848	0.00000	4021.55100
7.67230	0.00000	4021.55100
7.67613	0.00000	4018.31800
7.67996	0.00000	4018.31800
7.68379	0.00000	4018.31800
7.68762	0.00000	4018.31800
7.69145	0.00000	4018.31800
7.69529	0.00000	4024.78400
7.69913	0.00000	4024.78400
7.70295	0.00000	4024.78400
7.70678	0.00000	4024.78400
7.71061	0.00000	4024.78400
7.71443	0.00000	3994.00600
7.71826	0.00000	3994.00600
7.72208	0.00000	3994.00600
7.72591	0.00000	3994.00600
7.72975	0.00000	3994.00600
7.73358	0.00000	4024.78400
7.73740	0.00000	4024.78400
7.74123	0.00000	4024.78400
7.74507	0.00000	4024.78400
7.74889	0.00000	4024.78400
7.75273	0.00000	4024.78400
7.75656	0.00000	4024.78400
7.76038	0.00000	4024.78400
7.76422	0.00000	4024.78400
7.76805	0.00000	4024.78400
7.77189	0.00000	4015.08600
7.77572	0.00000	4015.08600
7.77955	0.00000	4015.08600
7.78338	0.00000	4015.08600
7.78721	0.00000	4015.08600
7.79105	0.00000	4021.55100
7.79488	0.00000	4021.55100
7.79871	0.00000	4021.55100
7.80254	0.00000	4021.55100
7.80637	0.00000	4021.55100
7.81020	0.00000	3994.00600
7.81404	0.00000	3994.00600
7.81786	0.00000	3994.00600
7.82169	0.00000	3994.00600
7.82552	0.00000	3994.00600
7.82934	0.00000	4018.31800
7.83317	0.00000	4018.31800
7.83701	0.00000	4018.31800
7.84083	0.00000	4018.31800
7.84467	0.00000	4018.31800
7.84850	0.00000	3994.00600
7.85233	0.00000	3994.00600
7.85616	0.00000	3994.00600
7.85999	0.00000	3994.00600
7.86382	0.00000	3994.00600
7.86765	0.00000	4021.55100
7.87147	0.00000	4021.55100
7.87530	0.00000	4021.55100
7.87913	0.00000	4021.55100
7.88296	0.00000	4021.55100
7.88679	0.00000	4024.78400
7.89062	0.00000	4024.78400
7.89446	0.00000	4024.78400
7.89829	0.00000	4024.78400
7.90212	0.00000	4024.78400
7.90595	0.00000	4008.62000
7.90977	0.00000	4008.62000
7.91360	0.00000	4008.62000
7.91743	0.00000	4008.62000
7.92126	0.00000	4008.62000
7.92509	0.00000	4029.94800
7.92892	0.00000	4029.94800
7.93275	0.00000	4029.94800
7.93658	0.00000	4029.94800
7.94041	0.00000	4026.69200
7.94423	0.00000	4026.69200
7.94806	0.00000	4026.69200
7.95189	0.00000	4026.69200
7.95572	0.00000	4026.69200
7.95954	0.00000	4005.38800
7.96338	0.00000	4005.38800
7.96720	0.00000	4005.38800
7.97104	0.00000	4005.38800
7.97490	0.00000	4005.38800
7.97873	0.00000	4008.62000
7.98258	0.00000	4008.62000
7.98646	0.00000	4008.62000
7.99030	0.00000	4008.62000
7.99415	0.00000	4008.62000
7.99799	0.00000	4028.01700
8.00185	0.00000	4028.01700
8.00569	0.00000	4028.01700
8.00953	0.00000	4028.01700
8.01337	0.00000	4028.01700
8.01720	0.00000	4006.84900
8.02107	0.00000	4006.84900
8.02492	0.00000	4006.84900
8.02876	0.00000	4006.84900
8.03259	0.00000	4006.84900
8.03643	0.00000	4024.78400
8.04027	0.00000	4024.78400
8.04410	0.00000	4024.78400
8.04793	0.00000	4024.78400
8.05172	0.00000	4024.78400
8.05556	0.00000	4028.01700
8.05939	0.00000	4028.01700
8.06323	0.00000	4028.01700
8.06706	0.00000	4028.01700
8.07090	0.00000	4028.01700
8.07472	0.00000	3994.00600
8.07855	0.00000	3994.00600
8.08238	0.00000	3994.00600
8.08621	0.00000	3994.00600
8.09004	0.00000	3994.00600
8.09387	0.00000	4028.01700
8.09771	0.00000	4028.01700
8.10155	0.00000	4028.01700
8.10786	0.00000	4028.01700
8.11190	0.00000	4033.20300
8.11572	0.00000	4033.20300
8.11956	0.00000	4033.20300
8.12340	0.00000	4033.20300
8.12724	0.00000	4033.20300
8.13107	0.00000	3994.00600
8.13490	0.00000	3994.00600
8.13873	0.00000	3994.00600
8.14257	0.00000	3994.00600
8.14639	0.00000	3994.00600
8.15022	0.00000	4011.85300
8.15407	0.00000	4011.85300
8.15790	0.00000	4011.85300
8.16172	0.00000	4011.85300
8.16555	0.00000	4011.85300
8.16938	0.00000	4024.78400
8.17321	0.00000	4024.78400
8.17704	0.00000	4024.78400
8.18087	0.00000	4024.78400
8.18470	0.00000	4024.78400
8.18853	0.00000	4003.63800
8.19237	0.00000	4003.63800
8.19621	0.00000	4003.63800
8.20006	0.00000	4003.63800
8.20389	0.00000	4003.63800
8.20772	0.00000	4028.01700
8.21157	0.00000	4028.01700
8.21540	0.00000	4028.01700
8.21924	0.00000	4028.01700
8.22307	0.00000	4028.01700
8.22690	0.00000	4015.08600
8.23073	0.00000	4015.08600
8.23456	0.00000	4015.08600
8.23838	0.00000	4015.08600
8.24221	0.00000	4015.08600
8.24604	0.00000	4000.42800
8.24987	0.00000	4000.42800
8.25370	0.00000	4000.42800
8.25752	0.00000	4000.42800
8.26135	0.00000	4000.42800
8.26518	0.00000	4021.55100
8.26902	0.00000	4021.55100
8.27285	0.00000	4021.55100
8.27668	0.00000	4021.55100
8.28051	0.00000	4021.55100
8.28434	0.00000	4010.05900
8.28818	0.00000	4010.05900
8.29201	0.00000	4010.05900
8.29585	0.00000	4010.05900
8.29970	0.00000	4010.05900
8.30354	0.00000	4006.84900
8.30738	0.00000	4006.84900
8.31121	0.00000	4006.84900
8.31504	0.00000	4006.84900
8.31887	0.00000	4006.84900
8.32271	0.00000	4024.78400
8.32653	0.00000	4024.78400
8.33037	0.00000	4024.78400
8.33421	0.00000	4024.78400
8.33804	0.00000	4024.78400
8.34188	0.00000	4024.78400
8.34571	0.00000	4024.78400
8.34953	0.00000	4024.78400
8.35337	0.00000	4024.78400
8.35720	0.00000	4024.78400
8.36103	0.00000	3997.21700
8.36486	0.00000	3997.21700
8.36870	0.00000	3997.21700
8.37254	0.00000	3997.21700
8.37637	0.00000	3997.21700
8.38020	0.00000	4003.63800
8.38402	0.00000	4003.63800
8.38786	0.00000	4003.63800
8.39169	0.00000	4003.63800
8.39553	0.00000	4003.63800
8.39936	0.00000	4021.55100
8.40318	0.00000	4021.55100
8.40702	0.00000	4021.55100
8.41084	0.00000	4021.55100
8.41467	0.00000	4021.55100
8.41849	0.00000	3987.58500
8.42232	0.00000	3987.58500
8.42614	0.00000	3987.58500
8.42997	0.00000	3987.58500
8.43380	0.00000	3987.58500
8.43764	0.00000	4024.78400
8.44146	0.00000	4024.78400
8.44529	0.00000	4024.78400
8.44913	0.00000	4024.78400
8.45296	0.00000	4024.78400
8.45679	0.00000	4024.78400
8.46062	0.00000	4024.78400
8.46444	0.00000	4024.78400
8.46827	0.00000	4024.78400
8.47210	0.00000	4024.78400
8.47592	0.00000	3994.00600
8.47972	0.00000	3994.00600
8.48354	0.00000	3994.00600
8.48737	0.00000	3994.00600
8.49121	0.00000	3994.00600
8.49504	0.00000	4028.01700
8.49886	0.00000	4028.01700
8.50269	0.00000	4028.01700
8.50651	0.00000	4028.01700
8.51035	0.00000	4028.01700
8.51418	0.00000	4024.78400
8.51800	0.00000	4024.78400
8.52183	0.00000	4024.78400
8.52565	0.00000	4024.78400
8.52948	0.00000	4024.78400
8.53332	0.00000	3994.00600
8.53715	0.00000	3994.00600
8.54097	0.00000	3994.00600
8.54480	0.00000	3994.00600
8.54863	0.00000	3994.00600
8.55246	0.00000	4024.78400
8.55629	0.00000	4024.78400
8.56012	0.00000	4024.78400
8.56395	0.00000	4024.78400
8.56779	0.00000	4024.78400
8.57162	0.00000	4039.71300
8.57545	0.00000	4039.71300
8.57927	0.00000	4039.71300
8.58309	0.00000	4039.71300
8.58692	0.00000	4039.71300
8.59075	0.00000	4015.08600
8.59457	0.00000	4015.08600
8.59840	0.00000	4015.08600
8.60224	0.00000	4015.08600
8.60608	0.00000	4002.15500
8.60991	0.00000	4002.15500
8.61375	0.00000	4002.15500
8.61757	0.00000	4002.15500
8.62140	0.00000	4002.15500
8.62523	0.00000	4029.94800
8.62906	0.00000	4029.94800
8.63289	0.00000	4029.94800
8.63672	0.00000	4029.94800
8.64055	0.00000	4029.94800
8.64438	0.00000	4026.69200
8.64823	0.00000	4026.69200
8.65206	0.00000	4026.69200
8.65589	0.00000	4026.69200
8.65972	0.00000	4026.69200
8.66355	0.00000	4015.08600
8.66739	0.00000	4015.08600
8.67123	0.00000	4015.08600
8.67506	0.00000	4015.08600
8.67889	0.00000	4015.08600
8.68271	0.00000	4000.42800
8.68656	0.00000	4000.42800
8.69039	0.00000	4000.42800
8.69421	0.00000	4000.42800
8.69805	0.00000	4000.42800
8.70189	0.00000	4018.31800
8.70573	0.00000	4018.31800
8.70960	0.00000	4018.31800
8.71373	0.00000	4018.31800
8.71773	0.00000	4018.31800
8.72158	0.00000	4021.55100
8.72542	0.00000	4021.55100
8.72925	0.00000	4021.55100
8.73308	0.00000	4021.55100
8.73691	0.00000	4021.55100
8.74074	0.00000	4021.55100
8.74457	0.00000	4021.55100
8.74840	0.00000	4021.55100
8.75223	0.00000	4021.55100
8.75606	0.00000	4021.55100
8.75989	0.00000	4028.01700
8.76372	0.00000	4028.01700
8.76755	0.00000	4028.01700
8.77139	0.00000	4028.01700
8.77521	0.00000	4028.01700
8.77904	0.00000	3987.58500
8.78287	0.00000	3987.58500
8.78670	0.00000	3987.58500
8.79054	0.00000	3987.58500
8.79437	0.00000	3987.58500
8.79819	0.00000	4011.85300
8.80203	0.00000	4011.85300
8.80587	0.00000	4011.85300
8.80970	0.00000	4011.85300
8.81352	0.00000	4011.85300
8.81735	0.00000	4006.84900
8.82117	0.00000	4006.84900
8.82500	0.00000	4006.84900
8.82882	0.00000	4006.84900
8.83265	0.00000	4006.84900
8.83648	0.00000	4000.42800
8.84030	0.00000	4000.42800
8.84413	0.00000	4000.42800
8.84795	0.00000	4000.42800
8.85178	0.00000	4000.42800
8.85561	0.00000	4024.78400
8.85944	0.00000	4024.78400
8.86326	0.00000	4024.78400
8.86709	0.00000	4024.78400
8.87092	0.00000	4024.78400
8.87474	0.00000	4028.01700
8.87857	0.00000	4028.01700
8.88240	0.00000	4028.01700
8.88623	0.00000	4028.01700
8.89005	0.00000	4028.01700
8.89388	0.00000	4006.84900
8.89770	0.00000	4006.84900
8.90154	0.00000	4006.84900
8.90538	0.00000	4006.84900
8.90921	0.00000	4006.84900
8.91304	0.00000	4028.01700
8.91686	0.00000	4028.01700
8.92069	0.00000	4028.01700
8.92453	0.00000	4028.01700
8.92837	0.00000	4028.01700
8.93220	0.00000	4011.85300
8.93602	0.00000	4011.85300
8.93985	0.00000	4011.85300
8.94368	0.00000	4011.85300
8.94751	0.00000	4011.85300
8.95134	0.00000	4011.85300
8.95517	0.00000	4011.85300
8.95900	0.00000	4011.85300
8.96283	0.00000	4011.85300
8.96665	0.00000	4011.85300
8.97048	0.00000	4028.01700
8.97431	0.00000	4028.01700
8.97813	0.00000	4028.01700
8.98196	0.00000	4028.01700
8.98579	0.00000	4028.01700
8.98962	0.00000	3997.21700
8.99345	0.00000	3997.21700
8.99729	0.00000	3997.21700
9.00112	0.00000	3997.21700
9.00495	0.00000	3997.21700
9.00878	0.00000	4018.31800
9.01261	0.00000	4018.31800
9.01643	0.00000	4018.31800
9.02026	0.00000	4018.31800
9.02409	0.00000	4018.31800
9.02792	0.00000	4011.85300
9.03172	0.00000	4011.85300
9.03556	0.00000	4011.85300
9.03939	0.00000	4011.85300
9.04323	0.00000	4011.85300
9.04705	0.00000	4011.85300
9.05089	0.00000	4011.85300
9.05471	0.00000	4011.85300
9.05854	0.00000	4011.85300
9.06237	0.00000	4020.18200
9.06619	0.00000	4020.18200
9.07002	0.00000	4020.18200
9.07386	0.00000	4020.18200
9.07768	0.00000	4020.18200
9.08151	0.00000	4036.45800
9.08534	0.00000	4036.45800
9.08918	0.00000	4036.45800
9.09300	0.00000	4036.45800
9.09683	0.00000	4036.45800
9.10066	0.00000	4029.94800
9.10451	0.00000	4029.94800
9.10834	0.00000	4029.94800
9.11217	0.00000	4029.94800
9.11599	0.00000	4029.94800
9.11983	0.00000	4005.38800
9.12368	0.00000	4005.38800
9.12752	0.00000	4005.38800
9.13134	0.00000	4005.38800
9.13517	0.00000	4005.38800
9.13899	0.00000	4021.55100
9.14282	0.00000	4021.55100
9.14665	0.00000	4021.55100
9.15047	0.00000	4021.55100
9.15430	0.00000	4021.55100
9.15813	0.00000	4008.62000
9.16198	0.00000	4008.62000
9.16581	0.00000	4008.62000
9.16964	0.00000	4008.62000
9.17347	0.00000	4008.62000
9.17730	0.00000	4015.08600
9.18113	0.00000	4015.08600
9.18496	0.00000	4015.08600
9.18878	0.00000	4015.08600
9.19261	0.00000	4015.08600
9.19643	0.00000	4015.08600
9.20027	0.00000	4015.08600
9.20410	0.00000	4015.08600
9.20793	0.00000	4015.08600
9.21177	0.00000	4015.08600
9.21560	0.00000	3997.21700
9.21942	0.00000	3997.21700
9.22326	0.00000	3997.21700
9.22710	0.00000	3997.21700
9.23093	0.00000	3997.21700
9.23476	0.00000	4028.01700
9.23860	0.00000	4028.01700
9.24242	0.00000	4028.01700
9.24625	0.00000	4028.01700
9.25007	0.00000	4028.01700
9.25390	0.00000	4028.01700
9.25773	0.00000	4028.01700
9.26157	0.00000	4028.01700
9.26539	0.00000	4028.01700
9.26923	0.00000	4028.01700
9.27307	0.00000	4015.08600
9.27689	0.00000	4015.08600
9.28071	0.00000	4015.08600
9.28454	0.00000	4015.08600
9.28837	0.00000	4015.08600
9.29221	0.00000	4018.31800
9.29604	0.00000	4018.31800
9.29987	0.00000	4018.31800
9.30370	0.00000	4018.31800
9.30755	0.00000	4018.31800
9.31137	0.00000	3990.79600
9.31520	0.00000	3990.79600
9.31903	0.00000	3990.79600
9.32285	0.00000	3990.79600
9.32667	0.00000	3990.79600
9.33050	0.00000	4018.31800
9.33433	0.00000	4018.31800
9.33816	0.00000	4018.31800
9.34199	0.00000	4018.31800
9.34582	0.00000	4018.31800
9.34965	0.00000	3990.79600
9.35348	0.00000	3990.79600
9.35732	0.00000	3990.79600
9.36114	0.00000	3990.79600
9.36497	0.00000	3990.79600
9.36881	0.00000	4024.78400
9.37264	0.00000	4024.78400
9.37647	0.00000	4024.78400
9.38031	0.00000	4024.78400
9.38413	0.00000	4024.78400
9.38797	0.00000	4018.31800
9.39180	0.00000	4018.31800
9.39563	0.00000	4018.31800
9.39946	0.00000	4018.31800
9.40329	0.00000	4018.31800
9.40712	0.00000	4003.63800
9.41095	0.00000	4003.63800
9.41478	0.00000	4003.63800
9.41861	0.00000	4003.63800
9.42244	0.00000	4003.63800
9.42627	0.00000	4024.78400
9.43011	0.00000	4024.78400
9.43394	0.00000	4024.78400
9.43776	0.00000	4024.78400
9.44159	0.00000	4024.78400
9.44542	0.00000	4024.78400
9.44925	0.00000	4024.78400
9.45308	0.00000	4024.78400
9.45691	0.00000	4024.78400
9.46075	0.00000	4024.78400
9.46458	0.00000	4008.62000
9.46841	0.00000	4008.62000
9.47225	0.00000	4008.62000
9.47608	0.00000	4008.62000
9.47990	0.00000	4008.62000
9.48372	0.00000	4031.25000
9.48754	0.00000	4031.25000
9.49137	0.00000	4031.25000
9.49520	0.00000	4031.25000
9.49903	0.00000	4031.25000
9.50285	0.00000	3990.79600
9.50668	0.00000	3990.79600
9.51051	0.00000	3990.79600
9.51433	0.00000	3990.79600
9.51816	0.00000	3990.79600
9.52199	0.00000	4024.78400
9.52582	0.00000	4024.78400
9.52965	0.00000	4024.78400
9.53349	0.00000	4024.78400
9.53732	0.00000	4024.78400
9.54115	0.00000	4015.08600
9.54498	0.00000	4015.08600
9.54880	0.00000	4015.08600
9.55263	0.00000	4015.08600
9.55646	0.00000	4015.08600
9.56028	0.00000	4018.31800
9.56411	0.00000	4018.31800
9.56794	0.00000	4018.31800
9.57177	0.00000	4018.31800
9.57559	0.00000	4018.31800
9.57941	0.00000	4026.69200
9.58324	0.00000	4026.69200
9.58708	0.00000	4026.69200
9.59090	0.00000	4026.69200
9.59472	0.00000	4029.94800
9.59855	0.00000	4029.94800
9.60237	0.00000	4029.94800
9.60620	0.00000	4029.94800
9.61003	0.00000	4029.94800
9.61387	0.00000	3992.45700
9.61770	0.00000	3992.45700
9.62153	0.00000	3992.45700
9.62536	0.00000	3992.45700
9.62918	0.00000	3992.45700
9.63301	0.00000	4005.38800
9.63684	0.00000	4005.38800
9.64067	0.00000	4005.38800
9.64450	0.00000	4005.38800
9.64833	0.00000	4005.38800
9.65216	0.00000	4042.96800
9.65600	0.00000	4042.96800
9.65983	0.00000	4042.96800
9.66366	0.00000	4042.96800
9.66748	0.00000	4042.96800
9.67130	0.00000	4021.55100
9.67514	0.00000	4021.55100
9.67897	0.00000	4021.55100
9.68279	0.00000	4021.55100
9.68663	0.00000	4021.55100
9.69046	0.00000	4008.62000
9.69430	0.00000	4008.62000
9.69812	0.00000	4008.62000
9.70195	0.00000	4008.62000
9.70578	0.00000	4008.62000
9.70960	0.00000	4024.78400
9.71344	0.00000	4024.78400
9.71726	0.00000	4024.78400
9.72111	0.00000	4024.78400
9.72494	0.00000	4024.78400
9.72876	0.00000	3994.00600
9.73260	0.00000	3994.00600
9.73643	0.00000	3994.00600
9.74026	0.00000	3994.00600
9.74409	0.00000	3994.00600
9.74791	0.00000	4021.55100
9.75172	0.00000	4021.55100
9.75555	0.00000	4021.55100
9.75938	0.00000	4021.55100
9.76322	0.00000	4021.55100
9.76705	0.00000	4031.25000
9.77088	0.00000	4031.25000
9.77471	0.00000	4031.25000
9.77854	0.00000	4031.25000
9.78237	0.00000	4031.25000
9.78619	0.00000	3997.21700
9.79002	0.00000	3997.21700
9.79384	0.00000	3997.21700
9.79767	0.00000	3997.21700
9.80150	0.00000	3997.21700
9.80534	0.00000	4003.63800
9.80919	0.00000	4003.63800
9.81301	0.00000	4003.63800
9.81684	0.00000	4003.63800
9.82067	0.00000	4003.63800
9.82450	0.00000	4021.55100
9.82833	0.00000	4021.55100
9.83216	0.00000	4021.55100
9.83598	0.00000	4021.55100
9.83982	0.00000	4021.55100
9.84365	0.00000	3990.79600
9.84748	0.00000	3990.79600
9.85130	0.00000	3990.79600
9.85513	0.00000	3990.79600
9.85896	0.00000	3990.79600
9.86278	0.00000	4011.85300
9.86662	0.00000	4011.85300
9.87045	0.00000	4011.85300
9.87427	0.00000	4011.85300
9.87810	0.00000	4011.85300
9.88193	0.00000	3984.37500
9.88578	0.00000	3984.37500
9.88961	0.00000	3984.37500
9.89344	0.00000	3984.37500
9.89726	0.00000	3984.37500
9.90109	0.00000	4021.55100
9.90492	0.00000	4021.55100
9.90875	0.00000	4021.55100
9.91257	0.00000	4021.55100
9.91640	0.00000	4021.55100
9.92023	0.00000	4003.63800
9.92407	0.00000	4003.63800
9.92790	0.00000	4003.63800
9.93172	0.00000	4003.63800
9.93555	0.00000	4003.63800
9.93937	0.00000	4006.84900
9.94320	0.00000	4006.84900
9.94702	0.00000	4006.84900
9.95085	0.00000	4006.84900
9.95469	0.00000	4006.84900
9.95851	0.00000	4003.63800
9.96235	0.00000	4003.63800
9.96618	0.00000	4003.63800
9.97001	0.00000	4003.63800
9.97384	0.00000	4003.63800
9.97768	0.00000	4024.78400
9.98150	0.00000	4024.78400
9.98533	0.00000	4024.78400
9.98916	0.00000	4024.78400
9.99299	0.00000	4024.78400
9.99682	0.00000	4018.31800
