Time (s)   Thrust (N)   RPM
0.00030	0.00000	3582.08900
0.00419	0.00000	3612.98000
0.00803	0.00000	3612.98000
0.01188	0.00000	3612.98000
0.01571	0.00000	3612.98000
0.01956	0.00000	3612.98000
0.02347	0.00000	3591.40000
0.02733	0.00000	3591.40000
0.03119	0.00000	3591.40000
0.03502	0.00000	3591.40000
0.03884	0.00000	3591.40000
0.04267	0.00000	3513.83600
0.04650	0.00000	3513.83600
0.05032	0.00000	3513.83600
0.05415	0.00000	3513.83600
0.05797	0.00000	3394.77500
0.06180	0.00000	3394.77500
0.06561	0.00000	3394.77500
0.06944	0.00000	3394.77500
0.07326	0.00000	3281.25000
0.07709	0.00000	3281.25000
0.08091	0.00000	3281.25000
0.08474	0.00000	3281.25000
0.08856	0.00000	3281.25000
0.09238	0.00000	3176.25000
0.09620	0.00000	3176.25000
0.10002	0.00000	3176.25000
0.10385	0.00000	3176.25000
0.10769	0.00000	3096.82300
0.11152	0.00000	3096.82300
0.11535	0.00000	3096.82300
0.11917	0.00000	3096.82300
0.12300	0.00000	2998.45000
0.12684	0.00000	2998.45000
0.13067	0.00000	2998.45000
0.13450	0.00000	2998.45000
0.13832	0.00000	2914.06200
0.14216	0.00000	2914.06200
0.14599	0.00000	2914.06200
0.14981	0.00000	2914.06200
0.15363	0.00000	2856.19700
0.15746	0.00000	2856.19700
0.16130	0.00000	2856.19700
0.16513	0.00000	2856.19700
0.16896	0.00000	2784.45500
0.17280	0.00000	2784.45500
0.17663	0.00000	2784.45500
0.18047	0.00000	2784.45500
0.18429	0.00000	2723.59900
0.18812	0.00000	2723.59900
0.19196	0.00000	2723.59900
0.19579	0.00000	2723.59900
0.19961	0.00000	2665.76000
0.20344	0.00000	2665.76000
0.20726	0.00000	2665.76000
0.21109	0.00000	2665.76000
0.21492	0.00000	2615.13100
0.21875	0.00000	2615.13100
0.22257	0.00000	2615.13100
0.22639	0.00000	2615.13100
0.23022	0.00000	2571.90200
0.23405	0.00000	2571.90200
0.23787	0.00000	2571.90200
0.24170	0.00000	2571.90200
0.24552	0.00000	2527.90100
0.24935	0.00000	2527.90100
0.25318	0.00000	2527.90100
0.25701	0.00000	2497.15900
0.26083	0.00000	2497.15900
0.26466	0.00000	2497.15900
0.26849	0.00000	2497.15900
0.27232	0.00000	2446.02200
0.27614	0.00000	2446.02200
0.27996	0.00000	2446.02200
0.28380	0.00000	2446.02200
0.28762	0.00000	2403.40900
0.29144	0.00000	2403.40900
0.29528	0.00000	2403.40900
0.29912	0.00000	2403.40900
0.30294	0.00000	2378.15300
0.30676	0.00000	2378.15300
0.31059	0.00000	2378.15300
0.31442	0.00000	2378.15300
0.31825	0.00000	2330.84800
0.32207	0.00000	2330.84800
0.32590	0.00000	2330.84800
0.32972	0.00000	2313.08400
0.33354	0.00000	2313.08400
0.33736	0.00000	2313.08400
0.34118	0.00000	2313.08400
0.34501	0.00000	2269.96500
0.34883	0.00000	2269.96500
0.35266	0.00000	2269.96500
0.35648	0.00000	2269.96500
0.36030	0.00000	2251.75200
0.36413	0.00000	2251.75200
0.36796	0.00000	2251.75200
0.37179	0.00000	2203.56300
0.37562	0.00000	2203.56300
0.37944	0.00000	2203.56300
0.38328	0.00000	2203.56300
0.38710	0.00000	2168.51600
0.39092	0.00000	2168.51600
0.39474	0.00000	2168.51600
0.39858	0.00000	2168.51600
0.40240	0.00000	2171.28500
0.40623	0.00000	2171.28500
0.41006	0.00000	2171.28500
0.41389	0.00000	2122.64100
0.41773	0.00000	2122.64100
0.42155	0.00000	2122.64100
0.42538	0.00000	2122.64100
0.42920	0.00000	2125.00000
0.43303	0.00000	2125.00000
0.43685	0.00000	2125.00000
0.44068	0.00000	2125.00000
0.44450	0.00000	2102.67800
0.44832	0.00000	2102.67800
0.45215	0.00000	2102.67800
0.45597	0.00000	2062.50000
0.45980	0.00000	2062.50000
0.46362	0.00000	2062.50000
0.46745	0.00000	2062.50000
0.47128	0.00000	2053.57100
0.47510	0.00000	2053.57100
0.47892	0.00000	2053.57100
0.48275	0.00000	2037.25900
0.48657	0.00000	2037.25900
0.49039	0.00000	2037.25900
0.49422	0.00000	2037.25900
0.49804	0.00000	2019.23000
0.50186	0.00000	2019.23000
0.50569	0.00000	2019.23000
0.50951	0.00000	2019.23000
0.51334	0.00000	2010.21600
0.51716	0.00000	2010.21600
0.52098	0.00000	2010.21600
0.52481	0.00000	1993.32500
0.52863	0.00000	1993.32500
0.53246	0.00000	1993.32500
0.53628	0.00000	1993.32500
0.54010	0.00000	1984.22300
0.54392	0.00000	1984.22300
0.54774	0.00000	1984.22300
0.55157	0.00000	1976.10200
0.55539	0.00000	1976.10200
0.55921	0.00000	1976.10200
0.56304	0.00000	1976.10200
0.56686	0.00000	1947.81500
0.57069	0.00000	1947.81500
0.57451	0.00000	1947.81500
0.57834	0.00000	1939.33800
0.58217	0.00000	1939.33800
0.58599	0.00000	1939.33800
0.58982	0.00000	1939.33800
0.59364	0.00000	1930.14700
0.59746	0.00000	1930.14700
0.60128	0.00000	1930.14700
0.60511	0.00000	1911.76400
0.60891	0.00000	1911.76400
0.61273	0.00000	1911.76400
0.61656	0.00000	1911.76400
0.62038	0.00000	1897.97800
0.62421	0.00000	1897.97800
0.62803	0.00000	1897.97800
0.63185	0.00000	1897.97800
0.63568	0.00000	1888.78600
0.63950	0.00000	1888.78600
0.64332	0.00000	1888.78600
0.64715	0.00000	1888.92300
0.65097	0.00000	1888.92300
0.65480	0.00000	1888.92300
0.65861	0.00000	1888.92300
0.66244	0.00000	1884.28200
0.66626	0.00000	1884.28200
0.67009	0.00000	1884.28200
0.67391	0.00000	1861.07600
0.67773	0.00000	1861.07600
0.68156	0.00000	1861.07600
0.68538	0.00000	1861.07600
0.68920	0.00000	1847.42600
0.69303	0.00000	1847.42600
0.69685	0.00000	1847.42600
0.70068	0.00000	1837.87100
0.70450	0.00000	1837.87100
0.70832	0.00000	1837.87100
0.71216	0.00000	1837.87100
0.71598	0.00000	1842.51200
0.71981	0.00000	1842.51200
0.72364	0.00000	1842.51200
0.72747	0.00000	1823.94800
0.73130	0.00000	1823.94800
0.73514	0.00000	1823.94800
0.73897	0.00000	1823.94800
0.74279	0.00000	1819.30700
0.74662	0.00000	1819.30700
0.75044	0.00000	1819.30700
0.75427	0.00000	1818.75000
0.75810	0.00000	1818.75000
0.76195	0.00000	1818.75000
0.76580	0.00000	1818.75000
0.76962	0.00000	1814.06200
0.77345	0.00000	1814.06200
0.77728	0.00000	1814.06200
0.78110	0.00000	1809.37500
0.78490	0.00000	1809.37500
0.78874	0.00000	1809.37500
0.79257	0.00000	1795.31200
0.79638	0.00000	1795.31200
0.80022	0.00000	1795.31200
0.80404	0.00000	1795.31200
0.80786	0.00000	1795.31200
0.81170	0.00000	1795.31200
0.81552	0.00000	1795.31200
0.81935	0.00000	1781.25000
0.82318	0.00000	1781.25000
0.82700	0.00000	1781.25000
0.83082	0.00000	1781.25000
0.83466	0.00000	1785.93700
0.83850	0.00000	1785.93700
0.84233	0.00000	1785.93700
0.84615	0.00000	1771.87500
0.84997	0.00000	1771.87500
0.85379	0.00000	1771.87500
0.85762	0.00000	1771.87500
0.86144	0.00000	1771.87500
0.86526	0.00000	1771.87500
0.86909	0.00000	1771.87500
0.87290	0.00000	1757.81200
0.87674	0.00000	1757.81200
0.88056	0.00000	1757.81200
0.88439	0.00000	1757.81200
0.88821	0.00000	1762.50000
0.89204	0.00000	1762.50000
0.89586	0.00000	1762.50000
0.89969	0.00000	1766.09800
0.90351	0.00000	1766.09800
0.90733	0.00000	1766.09800
0.91116	0.00000	1766.09800
0.91498	0.00000	1757.81200
0.91880	0.00000	1757.81200
0.92262	0.00000	1757.81200
0.92644	0.00000	1734.37500
0.93027	0.00000	1734.37500
0.93409	0.00000	1734.37500
0.93791	0.00000	1734.37500
0.94173	0.00000	1739.06200
0.94555	0.00000	1739.06200
0.94939	0.00000	1739.06200
0.95321	0.00000	1747.15900
0.95703	0.00000	1747.15900
0.96086	0.00000	1747.15900
0.96468	0.00000	1725.00000
0.96851	0.00000	1725.00000
0.97233	0.00000	1725.00000
0.97616	0.00000	1725.00000
0.97998	0.00000	1747.15900
0.98380	0.00000	1747.15900
0.98762	0.00000	1747.15900
0.99144	0.00000	1715.62500
0.99527	0.00000	1715.62500
0.99910	0.00000	1715.62500
1.00292	0.00000	1715.62500
1.00674	0.00000	1729.68700
1.01056	0.00000	1729.68700
1.01439	0.00000	1729.68700
1.01823	0.00000	1710.93700
1.02207	0.00000	1710.93700
1.02591	0.00000	1710.93700
1.02974	0.00000	1710.93700
1.03356	0.00000	1715.62500
1.03738	0.00000	1715.62500
1.04120	0.00000	1715.62500
1.04503	0.00000	1710.93700
1.04886	0.00000	1710.93700
1.05269	0.00000	1710.93700
1.05652	0.00000	1710.93700
1.06034	0.00000	1728.21900
1.06417	0.00000	1728.21900
1.06799	0.00000	1728.21900
1.07181	0.00000	1714.01500
1.07563	0.00000	1714.01500
1.07946	0.00000	1714.01500
1.08329	0.00000	1701.56200
1.08711	0.00000	1701.56200
1.09093	0.00000	1701.56200
1.09475	0.00000	1701.56200
1.09857	0.00000	1696.87500
1.10239	0.00000	1696.87500
1.10622	0.00000	1696.87500
1.11005	0.00000	1709.28000
1.11387	0.00000	1709.28000
1.11769	0.00000	1709.28000
1.12151	0.00000	1709.28000
1.12533	0.00000	1701.56200
1.12915	0.00000	1701.56200
1.13298	0.00000	1701.56200
1.13680	0.00000	1704.54500
1.14062	0.00000	1704.54500
1.14444	0.00000	1704.54500
1.14826	0.00000	1704.54500
1.15209	0.00000	1714.01500
1.15592	0.00000	1714.01500
1.15974	0.00000	1714.01500
1.16356	0.00000	1699.81000
1.16739	0.00000	1699.81000
1.17121	0.00000	1699.81000
1.17503	0.00000	1695.07500
1.17886	0.00000	1695.07500
1.18268	0.00000	1695.07500
1.18651	0.00000	1695.07500
1.19033	0.00000	1699.81000
1.19415	0.00000	1699.81000
1.19798	0.00000	1699.81000
1.20180	0.00000	1695.07500
1.20563	0.00000	1695.07500
1.20945	0.00000	1695.07500
1.21327	0.00000	1695.07500
1.21710	0.00000	1682.81200
1.22091	0.00000	1682.81200
1.22473	0.00000	1682.81200
1.22856	0.00000	1695.07500
1.23238	0.00000	1695.07500
1.23621	0.00000	1695.07500
1.24003	0.00000	1695.07500
1.24386	0.00000	1678.12500
1.24768	0.00000	1678.12500
1.25150	0.00000	1678.12500
1.25532	0.00000	1690.34000
1.25915	0.00000	1690.34000
1.26297	0.00000	1690.34000
1.26679	0.00000	1690.34000
1.27061	0.00000	1690.34000
1.27443	0.00000	1690.34000
1.27826	0.00000	1690.34000
1.28208	0.00000	1685.60600
1.28590	0.00000	1685.60600
1.28972	0.00000	1685.60600
1.29354	0.00000	1685.60600
1.29738	0.00000	1685.60600
1.30120	0.00000	1685.60600
1.30503	0.00000	1685.60600
1.30885	0.00000	1678.12500
1.31268	0.00000	1678.12500
1.31650	0.00000	1678.12500
1.32032	0.00000	1680.87100
1.32414	0.00000	1680.87100
1.32796	0.00000	1680.87100
1.33179	0.00000	1680.87100
1.33562	0.00000	1673.43700
1.33944	0.00000	1673.43700
1.34326	0.00000	1673.43700
1.34709	0.00000	1680.87100
1.35092	0.00000	1680.87100
1.35474	0.00000	1680.87100
1.35856	0.00000	1676.13600
1.36238	0.00000	1676.13600
1.36620	0.00000	1676.13600
1.37002	0.00000	1676.13600
1.37384	0.00000	1698.02300
1.37766	0.00000	1698.02300
1.38148	0.00000	1698.02300
1.38531	0.00000	1698.02300
1.38916	0.00000	1698.02300
1.39300	0.00000	1698.02300
1.39682	0.00000	1698.02300
1.40065	0.00000	1690.34000
1.40447	0.00000	1690.34000
1.40830	0.00000	1690.34000
1.41213	0.00000	1693.23900
1.41595	0.00000	1693.23900
1.41978	0.00000	1693.23900
1.42360	0.00000	1693.23900
1.42742	0.00000	1680.87100
1.43125	0.00000	1680.87100
1.43507	0.00000	1680.87100
1.43889	0.00000	1676.13600
1.44271	0.00000	1676.13600
1.44654	0.00000	1676.13600
1.45037	0.00000	1676.13600
1.45419	0.00000	1676.13600
1.45803	0.00000	1676.13600
1.46185	0.00000	1676.13600
1.46568	0.00000	1676.13600
1.46950	0.00000	1676.13600
1.47333	0.00000	1676.13600
1.47715	0.00000	1671.40100
1.48098	0.00000	1671.40100
1.48480	0.00000	1671.40100
1.48862	0.00000	1671.40100
1.49244	0.00000	1685.60600
1.49626	0.00000	1685.60600
1.50009	0.00000	1685.60600
1.50392	0.00000	1688.45600
1.50774	0.00000	1688.45600
1.51156	0.00000	1688.45600
1.51538	0.00000	1688.45600
1.51920	0.00000	1680.87100
1.52302	0.00000	1680.87100
1.52685	0.00000	1680.87100
1.53068	0.00000	1666.66600
1.53451	0.00000	1666.66600
1.53833	0.00000	1666.66600
1.54216	0.00000	1671.40100
1.54598	0.00000	1671.40100
1.54980	0.00000	1671.40100
1.55362	0.00000	1671.40100
1.55745	0.00000	1680.87100
1.56126	0.00000	1680.87100
1.56509	0.00000	1680.87100
1.56891	0.00000	1688.45600
1.57273	0.00000	1688.45600
1.57655	0.00000	1688.45600
1.58037	0.00000	1688.45600
1.58419	0.00000	1685.60600
1.58802	0.00000	1685.60600
1.59184	0.00000	1685.60600
1.59567	0.00000	1666.66600
1.59949	0.00000	1666.66600
1.60331	0.00000	1666.66600
1.60714	0.00000	1666.66600
1.61095	0.00000	1671.40100
1.61478	0.00000	1671.40100
1.61862	0.00000	1671.40100
1.62244	0.00000	1671.40100
1.62626	0.00000	1671.40100
1.63008	0.00000	1671.40100
1.63391	0.00000	1666.66600
1.63773	0.00000	1666.66600
1.64156	0.00000	1666.66600
1.64539	0.00000	1666.66600
1.64920	0.00000	1676.13600
1.65303	0.00000	1676.13600
1.65685	0.00000	1676.13600
1.66068	0.00000	1666.66600
1.66451	0.00000	1666.66600
1.66833	0.00000	1666.66600
1.67215	0.00000	1666.66600
1.67598	0.00000	1659.37500
1.67979	0.00000	1659.37500
1.68361	0.00000	1659.37500
1.68744	0.00000	1678.89000
1.69126	0.00000	1678.89000
1.69509	0.00000	1678.89000
1.69890	0.00000	1683.67300
1.70273	0.00000	1683.67300
1.70655	0.00000	1683.67300
1.71039	0.00000	1683.67300
1.71421	0.00000	1661.93100
1.71804	0.00000	1661.93100
1.72186	0.00000	1661.93100
1.72569	0.00000	1666.66600
1.72952	0.00000	1666.66600
1.73334	0.00000	1666.66600
1.73716	0.00000	1666.66600
1.74098	0.00000	1676.13600
1.74480	0.00000	1676.13600
1.74863	0.00000	1676.13600
1.75245	0.00000	1678.89000
1.75627	0.00000	1678.89000
1.76009	0.00000	1678.89000
1.76391	0.00000	1678.89000
1.76773	0.00000	1676.13600
1.77155	0.00000	1676.13600
1.77537	0.00000	1676.13600
1.77919	0.00000	1661.93100
1.78301	0.00000	1661.93100
1.78684	0.00000	1661.93100
1.79066	0.00000	1661.93100
1.79448	0.00000	1661.93100
1.79830	0.00000	1661.93100
1.80212	0.00000	1661.93100
1.80594	0.00000	1671.40100
1.80976	0.00000	1671.40100
1.81359	0.00000	1671.40100
1.81740	0.00000	1657.19600
1.82123	0.00000	1657.19600
1.82505	0.00000	1657.19600
1.82888	0.00000	1657.19600
1.83271	0.00000	1671.40100
1.83653	0.00000	1671.40100
1.84036	0.00000	1671.40100
1.84417	0.00000	1678.89000
1.84801	0.00000	1678.89000
1.85184	0.00000	1678.89000
1.85566	0.00000	1678.89000
1.85948	0.00000	1678.89000
1.86330	0.00000	1678.89000
1.86712	0.00000	1678.89000
1.87094	0.00000	1661.93100
1.87477	0.00000	1661.93100
1.87859	0.00000	1661.93100
1.88241	0.00000	1674.10700
1.88623	0.00000	1674.10700
1.89005	0.00000	1674.10700
1.89388	0.00000	1674.10700
1.89770	0.00000	1671.40100
1.90152	0.00000	1671.40100
1.90535	0.00000	1671.40100
1.90917	0.00000	1666.66600
1.91299	0.00000	1666.66600
1.91681	0.00000	1666.66600
1.92063	0.00000	1666.66600
1.92446	0.00000	1671.40100
1.92828	0.00000	1671.40100
1.93210	0.00000	1671.40100
1.93593	0.00000	1674.10700
1.93975	0.00000	1674.10700
1.94358	0.00000	1674.10700
1.94740	0.00000	1674.10700
1.95124	0.00000	1674.10700
1.95506	0.00000	1674.10700
1.95888	0.00000	1674.10700
1.96270	0.00000	1661.93100
1.96652	0.00000	1661.93100
1.97035	0.00000	1661.93100
1.97417	0.00000	1674.10700
1.97800	0.00000	1674.10700
1.98183	0.00000	1674.10700
1.98569	0.00000	1674.10700
1.98953	0.00000	1671.40100
1.99336	0.00000	1671.40100
1.99718	0.00000	1671.40100
2.00100	0.00000	1652.46200
2.00483	0.00000	1652.46200
2.00866	0.00000	1652.46200
2.01249	0.00000	1652.46200
2.01635	0.00000	1661.93100
2.02018	0.00000	1661.93100
2.02401	0.00000	1661.93100
2.02784	0.00000	1661.93100
2.03166	0.00000	1661.93100
2.03549	0.00000	1661.93100
2.03932	0.00000	1657.19600
2.04314	0.00000	1657.19600
2.04696	0.00000	1657.19600
2.05079	0.00000	1657.19600
2.05462	0.00000	1671.40100
2.05844	0.00000	1671.40100
2.06226	0.00000	1671.40100
2.06608	0.00000	1674.10700
2.06990	0.00000	1674.10700
2.07372	0.00000	1674.10700
2.07754	0.00000	1674.10700
2.08137	0.00000	1671.40100
2.08519	0.00000	1671.40100
2.08902	0.00000	1671.40100
2.09285	0.00000	1661.93100
2.09668	0.00000	1661.93100
2.10050	0.00000	1661.93100
2.10433	0.00000	1669.32400
2.10815	0.00000	1669.32400
2.11198	0.00000	1669.32400
2.11581	0.00000	1669.32400
2.11963	0.00000	1661.93100
2.12346	0.00000	1661.93100
2.12729	0.00000	1661.93100
2.13111	0.00000	1657.19600
2.13493	0.00000	1657.19600
2.13876	0.00000	1657.19600
2.14262	0.00000	1657.19600
2.14646	0.00000	1666.66600
2.15028	0.00000	1666.66600
2.15411	0.00000	1666.66600
2.15795	0.00000	1657.19600
2.16178	0.00000	1657.19600
2.16562	0.00000	1657.19600
2.16944	0.00000	1657.19600
2.17326	0.00000	1657.19600
2.17709	0.00000	1657.19600
2.18090	0.00000	1657.19600
2.18473	0.00000	1669.32400
2.18855	0.00000	1669.32400
2.19237	0.00000	1669.32400
2.19619	0.00000	1657.19600
2.20002	0.00000	1657.19600
2.20385	0.00000	1657.19600
2.20767	0.00000	1657.19600
2.21149	0.00000	1671.40100
2.21532	0.00000	1671.40100
2.21915	0.00000	1671.40100
2.22297	0.00000	1674.10700
2.22679	0.00000	1674.10700
2.23062	0.00000	1674.10700
2.23444	0.00000	1674.10700
2.23827	0.00000	1666.66600
2.24211	0.00000	1666.66600
2.24593	0.00000	1666.66600
2.24975	0.00000	1652.46200
2.25358	0.00000	1652.46200
2.25740	0.00000	1652.46200
2.26121	0.00000	1674.10700
2.26503	0.00000	1674.10700
2.26887	0.00000	1674.10700
2.27269	0.00000	1674.10700
2.27651	0.00000	1666.66600
2.28034	0.00000	1666.66600
2.28416	0.00000	1666.66600
2.28799	0.00000	1652.46200
2.29181	0.00000	1652.46200
2.29563	0.00000	1652.46200
2.29945	0.00000	1652.46200
2.30328	0.00000	1671.40100
2.30710	0.00000	1671.40100
2.31092	0.00000	1671.40100
2.31475	0.00000	1669.32400
2.31858	0.00000	1669.32400
2.32240	0.00000	1669.32400
2.32623	0.00000	1657.19600
2.33005	0.00000	1657.19600
2.33387	0.00000	1657.19600
2.33770	0.00000	1657.19600
2.34153	0.00000	1678.89000
2.34535	0.00000	1678.89000
2.34918	0.00000	1678.89000
2.35300	0.00000	1674.10700
2.35683	0.00000	1674.10700
2.36065	0.00000	1674.10700
2.36448	0.00000	1674.10700
2.36830	0.00000	1650.00000
2.37213	0.00000	1650.00000
2.37595	0.00000	1650.00000
2.37976	0.00000	1674.10700
2.38359	0.00000	1674.10700
2.38742	0.00000	1674.10700
2.39124	0.00000	1674.10700
2.39506	0.00000	1666.66600
2.39889	0.00000	1666.66600
2.40271	0.00000	1666.66600
2.40654	0.00000	1652.46200
2.41036	0.00000	1652.46200
2.41418	0.00000	1652.46200
2.41801	0.00000	1674.10700
2.42184	0.00000	1674.10700
2.42566	0.00000	1674.10700
2.42949	0.00000	1674.10700
2.43331	0.00000	1661.93100
2.43713	0.00000	1661.93100
2.44091	0.00000	1661.93100
2.44473	0.00000	1652.46200
2.44857	0.00000	1652.46200
2.45238	0.00000	1652.46200
2.45620	0.00000	1652.46200
2.46003	0.00000	1666.66600
2.46386	0.00000	1666.66600
2.46768	0.00000	1666.66600
2.47150	0.00000	1652.46200
2.47533	0.00000	1652.46200
2.47915	0.00000	1652.46200
2.48297	0.00000	1652.46200
2.48679	0.00000	1657.19600
2.49061	0.00000	1657.19600
2.49443	0.00000	1657.19600
2.49826	0.00000	1674.10700
2.50208	0.00000	1674.10700
2.50591	0.00000	1674.10700
2.50973	0.00000	1657.19600
2.51355	0.00000	1657.19600
2.51737	0.00000	1657.19600
2.52119	0.00000	1657.19600
2.52501	0.00000	1666.66600
2.52884	0.00000	1666.66600
2.53265	0.00000	1666.66600
2.53648	0.00000	1669.32400
2.54030	0.00000	1669.32400
2.54412	0.00000	1669.32400
2.54795	0.00000	1669.32400
2.55177	0.00000	1666.66600
2.55558	0.00000	1666.66600
2.55941	0.00000	1666.66600
2.56323	0.00000	1657.19600
2.56706	0.00000	1657.19600
2.57093	0.00000	1657.19600
2.57477	0.00000	1674.10700
2.57861	0.00000	1674.10700
2.58243	0.00000	1674.10700
2.58626	0.00000	1674.10700
2.59009	0.00000	1657.19600
2.59391	0.00000	1657.19600
2.59774	0.00000	1657.19600
2.60156	0.00000	1657.19600
2.60539	0.00000	1657.19600
2.60922	0.00000	1657.19600
2.61304	0.00000	1657.19600
2.61686	0.00000	1661.93100
2.62068	0.00000	1661.93100
2.62451	0.00000	1661.93100
2.62833	0.00000	1652.46200
2.63215	0.00000	1652.46200
2.63598	0.00000	1652.46200
2.63980	0.00000	1652.46200
2.64362	0.00000	1657.19600
2.64745	0.00000	1657.19600
2.65126	0.00000	1657.19600
2.65508	0.00000	1652.46200
2.65890	0.00000	1652.46200
2.66272	0.00000	1652.46200
2.66655	0.00000	1652.46200
2.67038	0.00000	1652.46200
2.67420	0.00000	1652.46200
2.67802	0.00000	1652.46200
2.68185	0.00000	1666.66600
2.68568	0.00000	1666.66600
2.68950	0.00000	1666.66600
2.69332	0.00000	1652.46200
2.69714	0.00000	1652.46200
2.70097	0.00000	1652.46200
2.70479	0.00000	1652.46200
2.70862	0.00000	1666.66600
2.71244	0.00000	1666.66600
2.71626	0.00000	1666.66600
2.72009	0.00000	1669.32400
2.72391	0.00000	1669.32400
2.72774	0.00000	1669.32400
2.73157	0.00000	1674.10700
2.73539	0.00000	1674.10700
2.73922	0.00000	1674.10700
2.74304	0.00000	1674.10700
2.74686	0.00000	1678.89000
2.75068	0.00000	1678.89000
2.75452	0.00000	1678.89000
2.75834	0.00000	1674.10700
2.76216	0.00000	1674.10700
2.76599	0.00000	1674.10700
2.76981	0.00000	1674.10700
2.77363	0.00000	1666.66600
2.77746	0.00000	1666.66600
2.78128	0.00000	1666.66600
2.78510	0.00000	1657.19600
2.78891	0.00000	1657.19600
2.79273	0.00000	1657.19600
2.79655	0.00000	1657.19600
2.80037	0.00000	1657.19600
2.80419	0.00000	1657.19600
2.80801	0.00000	1657.19600
2.81184	0.00000	1657.19600
2.81566	0.00000	1657.19600
2.81948	0.00000	1657.19600
2.82331	0.00000	1647.72700
2.82714	0.00000	1647.72700
2.83096	0.00000	1647.72700
2.83478	0.00000	1647.72700
2.83861	0.00000	1666.66600
2.84243	0.00000	1666.66600
2.84625	0.00000	1666.66600
2.85007	0.00000	1657.19600
2.85390	0.00000	1657.19600
2.85772	0.00000	1657.19600
2.86154	0.00000	1657.19600
2.86536	0.00000	1661.93100
2.86919	0.00000	1661.93100
2.87301	0.00000	1661.93100
2.87683	0.00000	1669.32400
2.88065	0.00000	1669.32400
2.88448	0.00000	1669.32400
2.88830	0.00000	1657.19600
2.89212	0.00000	1657.19600
2.89595	0.00000	1657.19600
2.89976	0.00000	1657.19600
2.90359	0.00000	1674.10700
2.90741	0.00000	1674.10700
2.91124	0.00000	1674.10700
2.91507	0.00000	1674.10700
2.91889	0.00000	1674.10700
2.92271	0.00000	1674.10700
2.92653	0.00000	1674.10700
2.93035	0.00000	1645.31200
2.93418	0.00000	1645.31200
2.93801	0.00000	1645.31200
2.94183	0.00000	1669.32400
2.94566	0.00000	1669.32400
2.94948	0.00000	1669.32400
2.95330	0.00000	1669.32400
2.95712	0.00000	1661.93100
2.96090	0.00000	1661.93100
2.96473	0.00000	1661.93100
2.96856	0.00000	1669.32400
2.97238	0.00000	1669.32400
2.97621	0.00000	1669.32400
2.98003	0.00000	1669.32400
2.98387	0.00000	1669.32400
2.98769	0.00000	1669.32400
2.99152	0.00000	1669.32400
2.99534	0.00000	1666.66600
2.99917	0.00000	1666.66600
3.00299	0.00000	1666.66600
3.00681	0.00000	1652.46200
3.01064	0.00000	1652.46200
3.01446	0.00000	1652.46200
3.01828	0.00000	1652.46200
3.02210	0.00000	1666.66600
3.02593	0.00000	1666.66600
3.02975	0.00000	1666.66600
3.03358	0.00000	1657.19600
3.03740	0.00000	1657.19600
3.04122	0.00000	1657.19600
3.04504	0.00000	1657.19600
3.04886	0.00000	1657.19600
3.05270	0.00000	1657.19600
3.05653	0.00000	1657.19600
3.06035	0.00000	1657.19600
3.06417	0.00000	1657.19600
3.06799	0.00000	1657.19600
3.07180	0.00000	1652.46200
3.07563	0.00000	1652.46200
3.07945	0.00000	1652.46200
3.08327	0.00000	1652.46200
3.08710	0.00000	1666.66600
3.09093	0.00000	1666.66600
3.09476	0.00000	1666.66600
3.09858	0.00000	1674.10700
3.10241	0.00000	1674.10700
3.10623	0.00000	1674.10700
3.11005	0.00000	1674.10700
3.11387	0.00000	1666.66600
3.11770	0.00000	1666.66600
3.12152	0.00000	1666.66600
3.12534	0.00000	1669.32400
3.12916	0.00000	1669.32400
3.13299	0.00000	1669.32400
3.13682	0.00000	1674.10700
3.14064	0.00000	1674.10700
3.14448	0.00000	1674.10700
3.14833	0.00000	1674.10700
3.15215	0.00000	1666.66600
3.15598	0.00000	1666.66600
3.15980	0.00000	1666.66600
3.16363	0.00000	1657.19600
3.16745	0.00000	1657.19600
3.17129	0.00000	1657.19600
3.17511	0.00000	1657.19600
3.17894	0.00000	1671.40100
3.18276	0.00000	1671.40100
3.18659	0.00000	1671.40100
3.19041	0.00000	1657.19600
3.19423	0.00000	1657.19600
3.19804	0.00000	1657.19600
3.20186	0.00000	1652.46200
3.20569	0.00000	1652.46200
3.20951	0.00000	1652.46200
3.21332	0.00000	1652.46200
3.21715	0.00000	1661.93100
3.22097	0.00000	1661.93100
3.22479	0.00000	1661.93100
3.22861	0.00000	1657.19600
3.23244	0.00000	1657.19600
3.23626	0.00000	1657.19600
3.24008	0.00000	1657.19600
3.24391	0.00000	1661.93100
3.24773	0.00000	1661.93100
3.25156	0.00000	1661.93100
3.25538	0.00000	1674.10700
3.25921	0.00000	1674.10700
3.26304	0.00000	1674.10700
3.26687	0.00000	1674.10700
3.27069	0.00000	1683.67300
3.27451	0.00000	1683.67300
3.27833	0.00000	1683.67300
3.28215	0.00000	1657.19600
3.28598	0.00000	1657.19600
3.28979	0.00000	1657.19600
3.29362	0.00000	1669.32400
3.29746	0.00000	1669.32400
3.30128	0.00000	1669.32400
3.30510	0.00000	1669.32400
3.30891	0.00000	1666.66600
3.31273	0.00000	1666.66600
3.31655	0.00000	1666.66600
3.32038	0.00000	1657.19600
3.32420	0.00000	1657.19600
3.32802	0.00000	1657.19600
3.33186	0.00000	1657.19600
3.33568	0.00000	1666.66600
3.33950	0.00000	1666.66600
3.34333	0.00000	1666.66600
3.34715	0.00000	1657.19600
3.35098	0.00000	1657.19600
3.35480	0.00000	1657.19600
3.35862	0.00000	1652.46200
3.36245	0.00000	1652.46200
3.36627	0.00000	1652.46200
3.37009	0.00000	1652.46200
3.37391	0.00000	1652.46200
3.37773	0.00000	1652.46200
3.38156	0.00000	1652.46200
3.38538	0.00000	1657.19600
3.38923	0.00000	1657.19600
3.39305	0.00000	1657.19600
3.39687	0.00000	1657.19600
3.40070	0.00000	1671.40100
3.40453	0.00000	1671.40100
3.40835	0.00000	1671.40100
3.41218	0.00000	1674.10700
3.41600	0.00000	1674.10700
3.41981	0.00000	1674.10700
3.42364	0.00000	1674.10700
3.42747	0.00000	1678.89000
3.43130	0.00000	1678.89000
3.43511	0.00000	1678.89000
3.43894	0.00000	1674.10700
3.44276	0.00000	1674.10700
3.44659	0.00000	1674.10700
3.45041	0.00000	1674.10700
3.45423	0.00000	1674.10700
3.45804	0.00000	1674.10700
3.46186	0.00000	1674.10700
3.46568	0.00000	1671.40100
3.46950	0.00000	1671.40100
3.47333	0.00000	1671.40100
3.47715	0.00000	1652.46200
3.48098	0.00000	1652.46200
3.48480	0.00000	1652.46200
3.48862	0.00000	1652.46200
3.49244	0.00000	1666.66600
3.49627	0.00000	1666.66600
3.50009	0.00000	1666.66600
3.50392	0.00000	1661.93100
3.50775	0.00000	1661.93100
3.51157	0.00000	1661.93100
3.51540	0.00000	1657.19600
3.51922	0.00000	1657.19600
3.52304	0.00000	1657.19600
3.52686	0.00000	1657.19600
3.53068	0.00000	1678.89000
3.53450	0.00000	1678.89000
3.53833	0.00000	1678.89000
3.54215	0.00000	1674.10700
3.54598	0.00000	1674.10700
3.54980	0.00000	1674.10700
3.55362	0.00000	1674.10700
3.55744	0.00000	1650.00000
3.56127	0.00000	1650.00000
3.56509	0.00000	1650.00000
3.56891	0.00000	1678.89000
3.57273	0.00000	1678.89000
3.57654	0.00000	1678.89000
3.58036	0.00000	1678.89000
3.58418	0.00000	1671.40100
3.58801	0.00000	1671.40100
3.59183	0.00000	1671.40100
3.59566	0.00000	1652.46200
3.59948	0.00000	1652.46200
3.60330	0.00000	1652.46200
3.60712	0.00000	1657.19600
3.61094	0.00000	1657.19600
3.61477	0.00000	1657.19600
3.61860	0.00000	1657.19600
3.62243	0.00000	1661.93100
3.62625	0.00000	1661.93100
3.63007	0.00000	1661.93100
3.63389	0.00000	1657.19600
3.63771	0.00000	1657.19600
3.64153	0.00000	1657.19600
3.64536	0.00000	1657.19600
3.64918	0.00000	1671.40100
3.65302	0.00000	1671.40100
3.65684	0.00000	1671.40100
3.66066	0.00000	1669.32400
3.66449	0.00000	1669.32400
3.66831	0.00000	1669.32400
3.67214	0.00000	1652.46200
3.67596	0.00000	1652.46200
3.67979	0.00000	1652.46200
3.68361	0.00000	1652.46200
3.68744	0.00000	1674.10700
3.69126	0.00000	1674.10700
3.69508	0.00000	1674.10700
3.69891	0.00000	1669.32400
3.70274	0.00000	1669.32400
3.70656	0.00000	1669.32400
3.71037	0.00000	1669.32400
3.71420	0.00000	1650.00000
3.71802	0.00000	1650.00000
3.72184	0.00000	1650.00000
3.72567	0.00000	1669.32400
3.72949	0.00000	1669.32400
3.73332	0.00000	1669.32400
3.73714	0.00000	1669.32400
3.74095	0.00000	1661.93100
3.74479	0.00000	1661.93100
3.74861	0.00000	1661.93100
3.75244	0.00000	1657.19600
3.75626	0.00000	1657.19600
3.76008	0.00000	1657.19600
3.76391	0.00000	1669.32400
3.76773	0.00000	1669.32400
3.77156	0.00000	1669.32400
3.77538	0.00000	1669.32400
3.77920	0.00000	1661.93100
3.78302	0.00000	1661.93100
3.78684	0.00000	1661.93100
3.79067	0.00000	1657.19600
3.79449	0.00000	1657.19600
3.79832	0.00000	1657.19600
3.80214	0.00000	1657.19600
3.80596	0.00000	1666.66600
3.80978	0.00000	1666.66600
3.81360	0.00000	1666.66600
3.81743	0.00000	1657.19600
3.82125	0.00000	1657.19600
3.82507	0.00000	1657.19600
3.82891	0.00000	1657.19600
3.83273	0.00000	1657.19600
3.83654	0.00000	1657.19600
3.84036	0.00000	1657.19600
3.84418	0.00000	1674.10700
3.84801	0.00000	1674.10700
3.85183	0.00000	1674.10700
3.85566	0.00000	1657.19600
3.85949	0.00000	1657.19600
3.86331	0.00000	1657.19600
3.86713	0.00000	1657.19600
3.87095	0.00000	1666.66600
3.87477	0.00000	1666.66600
3.87860	0.00000	1666.66600
3.88243	0.00000	1674.10700
3.88626	0.00000	1674.10700
3.89008	0.00000	1674.10700
3.89390	0.00000	1674.10700
3.89773	0.00000	1661.93100
3.90155	0.00000	1661.93100
3.90537	0.00000	1661.93100
3.90919	0.00000	1669.32400
3.91301	0.00000	1669.32400
3.91683	0.00000	1669.32400
3.92065	0.00000	1674.10700
3.92449	0.00000	1674.10700
3.92831	0.00000	1674.10700
3.93213	0.00000	1674.10700
3.93595	0.00000	1666.66600
3.93978	0.00000	1666.66600
3.94361	0.00000	1666.66600
3.94743	0.00000	1652.46200
3.95126	0.00000	1652.46200
3.95508	0.00000	1652.46200
3.95890	0.00000	1652.46200
3.96273	0.00000	1666.66600
3.96655	0.00000	1666.66600
3.97038	0.00000	1666.66600
3.97420	0.00000	1657.19600
3.97802	0.00000	1657.19600
3.98184	0.00000	1657.19600
3.98566	0.00000	1657.19600
3.98948	0.00000	1657.19600
3.99330	0.00000	1657.19600
3.99713	0.00000	1657.19600
4.00091	0.00000	1669.32400
4.00473	0.00000	1669.32400
4.00854	0.00000	1669.32400
4.01237	0.00000	1652.46200
4.01620	0.00000	1652.46200
4.02001	0.00000	1652.46200
4.02384	0.00000	1652.46200
4.02766	0.00000	1661.93100
4.03148	0.00000	1661.93100
4.03531	0.00000	1661.93100
4.03913	0.00000	1674.10700
4.04295	0.00000	1674.10700
4.04678	0.00000	1674.10700
4.05060	0.00000	1674.10700
4.05443	0.00000	1654.68700
4.05825	0.00000	1654.68700
4.06208	0.00000	1654.68700
4.06590	0.00000	1669.32400
4.06972	0.00000	1669.32400
4.07354	0.00000	1669.32400
4.07737	0.00000	1669.32400
4.08120	0.00000	1669.32400
4.08503	0.00000	1669.32400
4.08884	0.00000	1669.32400
4.09267	0.00000	1661.93100
4.09649	0.00000	1661.93100
4.10031	0.00000	1661.93100
4.10414	0.00000	1674.10700
4.10797	0.00000	1674.10700
4.11179	0.00000	1674.10700
4.11561	0.00000	1674.10700
4.11943	0.00000	1666.66600
4.12326	0.00000	1666.66600
4.12709	0.00000	1666.66600
4.13091	0.00000	1652.46200
4.13474	0.00000	1652.46200
4.13856	0.00000	1652.46200
4.14239	0.00000	1652.46200
4.14621	0.00000	1666.66600
4.15004	0.00000	1666.66600
4.15385	0.00000	1666.66600
4.15768	0.00000	1657.19600
4.16150	0.00000	1657.19600
4.16533	0.00000	1657.19600
4.16915	0.00000	1657.19600
4.17298	0.00000	1657.19600
4.17681	0.00000	1657.19600
4.18063	0.00000	1657.19600
4.18445	0.00000	1666.66600
4.18828	0.00000	1666.66600
4.19210	0.00000	1666.66600
4.19592	0.00000	1669.32400
4.19974	0.00000	1669.32400
4.20357	0.00000	1669.32400
4.20739	0.00000	1669.32400
4.21121	0.00000	1650.00000
4.21503	0.00000	1650.00000
4.21885	0.00000	1650.00000
4.22267	0.00000	1669.32400
4.22650	0.00000	1669.32400
4.23032	0.00000	1669.32400
4.23414	0.00000	1669.32400
4.23796	0.00000	1669.32400
4.24179	0.00000	1669.32400
4.24561	0.00000	1669.32400
4.24944	0.00000	1674.10700
4.25326	0.00000	1674.10700
4.25708	0.00000	1674.10700
4.26090	0.00000	1674.10700
4.26473	0.00000	1674.10700
4.26854	0.00000	1674.10700
4.27237	0.00000	1674.10700
4.27619	0.00000	1661.93100
4.28001	0.00000	1661.93100
4.28383	0.00000	1661.93100
4.28765	0.00000	1669.32400
4.29147	0.00000	1669.32400
4.29530	0.00000	1669.32400
4.29912	0.00000	1669.32400
4.30294	0.00000	1661.93100
4.30676	0.00000	1661.93100
4.31059	0.00000	1661.93100
4.31442	0.00000	1652.46200
4.31824	0.00000	1652.46200
4.32208	0.00000	1652.46200
4.32591	0.00000	1669.32400
4.32973	0.00000	1669.32400
4.33356	0.00000	1669.32400
4.33738	0.00000	1669.32400
4.34120	0.00000	1666.66600
4.34502	0.00000	1666.66600
4.34885	0.00000	1666.66600
4.35267	0.00000	1652.46200
4.35649	0.00000	1652.46200
4.36031	0.00000	1652.46200
4.36414	0.00000	1652.46200
4.36796	0.00000	1666.66600
4.37179	0.00000	1666.66600
4.37562	0.00000	1666.66600
4.37944	0.00000	1669.32400
4.38326	0.00000	1669.32400
4.38709	0.00000	1669.32400
4.39091	0.00000	1657.19600
4.39473	0.00000	1657.19600
4.39857	0.00000	1657.19600
4.40240	0.00000	1657.19600
4.40622	0.00000	1674.10700
4.41004	0.00000	1674.10700
4.41387	0.00000	1674.10700
4.41769	0.00000	1652.46200
4.42152	0.00000	1652.46200
4.42534	0.00000	1652.46200
4.42916	0.00000	1652.46200
4.43298	0.00000	1661.93100
4.43680	0.00000	1661.93100
4.44062	0.00000	1661.93100
4.44444	0.00000	1669.32400
4.44826	0.00000	1669.32400
4.45209	0.00000	1669.32400
4.45591	0.00000	1669.32400
4.45973	0.00000	1661.93100
4.46355	0.00000	1661.93100
4.46738	0.00000	1661.93100
4.47120	0.00000	1669.32400
4.47502	0.00000	1669.32400
4.47884	0.00000	1669.32400
4.48266	0.00000	1669.32400
4.48649	0.00000	1669.32400
4.49032	0.00000	1669.32400
4.49415	0.00000	1669.32400
4.49797	0.00000	1661.93100
4.50180	0.00000	1661.93100
4.50562	0.00000	1661.93100
4.50944	0.00000	1669.32400
4.51327	0.00000	1669.32400
4.51709	0.00000	1669.32400
4.52091	0.00000	1669.32400
4.52473	0.00000	1666.66600
4.52855	0.00000	1666.66600
4.53237	0.00000	1666.66600
4.53620	0.00000	1652.46200
4.54003	0.00000	1652.46200
4.54385	0.00000	1652.46200
4.54767	0.00000	1669.32400
4.55149	0.00000	1669.32400
4.55532	0.00000	1669.32400
4.55915	0.00000	1669.32400
4.56297	0.00000	1657.19600
4.56680	0.00000	1657.19600
4.57062	0.00000	1657.19600
4.57444	0.00000	1652.46200
4.57827	0.00000	1652.46200
4.58209	0.00000	1652.46200
4.58592	0.00000	1652.46200
4.58974	0.00000	1666.66600
4.59357	0.00000	1666.66600
4.59739	0.00000	1666.66600
4.60122	0.00000	1647.72700
4.60504	0.00000	1647.72700
4.60886	0.00000	1647.72700
4.61269	0.00000	1647.72700
4.61652	0.00000	1657.19600
4.62034	0.00000	1657.19600
4.62416	0.00000	1657.19600
4.62799	0.00000	1652.46200
4.63181	0.00000	1652.46200
4.63563	0.00000	1652.46200
4.63945	0.00000	1652.46200
4.64328	0.00000	1652.46200
4.64711	0.00000	1652.46200
4.65094	0.00000	1652.46200
4.65476	0.00000	1661.93100
4.65858	0.00000	1661.93100
4.66241	0.00000	1661.93100
4.66623	0.00000	1657.19600
4.67006	0.00000	1657.19600
4.67387	0.00000	1657.19600
4.67770	0.00000	1657.19600
4.68152	0.00000	1666.66600
4.68534	0.00000	1666.66600
4.68916	0.00000	1666.66600
4.69298	0.00000	1674.10700
4.69680	0.00000	1674.10700
4.70062	0.00000	1674.10700
4.70445	0.00000	1664.54000
4.70828	0.00000	1664.54000
4.71210	0.00000	1664.54000
4.71592	0.00000	1664.54000
4.71975	0.00000	1674.10700
4.72357	0.00000	1674.10700
4.72739	0.00000	1674.10700
4.73122	0.00000	1669.32400
4.73504	0.00000	1669.32400
4.73887	0.00000	1669.32400
4.74269	0.00000	1669.32400
4.74651	0.00000	1650.00000
4.75034	0.00000	1650.00000
4.75416	0.00000	1650.00000
4.75798	0.00000	1669.32400
4.76182	0.00000	1669.32400
4.76565	0.00000	1669.32400
4.76948	0.00000	1669.32400
4.77330	0.00000	1661.93100
4.77712	0.00000	1661.93100
4.78091	0.00000	1661.93100
4.78473	0.00000	1652.46200
4.78855	0.00000	1652.46200
4.79238	0.00000	1652.46200
4.79620	0.00000	1669.32400
4.80002	0.00000	1669.32400
4.80385	0.00000	1669.32400
4.80767	0.00000	1669.32400
4.81149	0.00000	1661.93100
4.81531	0.00000	1661.93100
4.81914	0.00000	1661.93100
4.82296	0.00000	1647.72700
4.82678	0.00000	1647.72700
4.83061	0.00000	1647.72700
4.83444	0.00000	1647.72700
4.83826	0.00000	1661.93100
4.84209	0.00000	1661.93100
4.84591	0.00000	1661.93100
4.84973	0.00000	1652.46200
4.85355	0.00000	1652.46200
4.85738	0.00000	1652.46200
4.86119	0.00000	1664.54000
4.86502	0.00000	1664.54000
4.86884	0.00000	1664.54000
4.87266	0.00000	1664.54000
4.87648	0.00000	1657.19600
4.88030	0.00000	1657.19600
4.88412	0.00000	1657.19600
4.88793	0.00000	1652.46200
4.89176	0.00000	1652.46200
4.89559	0.00000	1652.46200
4.89941	0.00000	1652.46200
4.90323	0.00000	1666.66600
4.90706	0.00000	1666.66600
4.91088	0.00000	1666.66600
4.91470	0.00000	1652.46200
4.91853	0.00000	1652.46200
4.92235	0.00000	1652.46200
4.92618	0.00000	1652.46200
4.93000	0.00000	1657.19600
4.93383	0.00000	1657.19600
4.93765	0.00000	1657.19600
4.94147	0.00000	1669.32400
4.94529	0.00000	1669.32400
4.94911	0.00000	1669.32400
4.95290	0.00000	1657.19600
4.95673	0.00000	1657.19600
4.96056	0.00000	1657.19600
4.96438	0.00000	1657.19600
4.96821	0.00000	1666.66600
4.97203	0.00000	1666.66600
4.97584	0.00000	1666.66600
4.97967	0.00000	1674.10700
4.98352	0.00000	1674.10700
4.98734	0.00000	1674.10700
4.99116	0.00000	1674.10700
4.99499	0.00000	1666.66600
4.99882	0.00000	1666.66600
5.00317	0.00000	1666.66600
5.00703	0.00000	1664.54000
5.01087	0.00000	1664.54000
5.01470	0.00000	1664.54000
5.01853	0.00000	1674.10700
5.02236	0.00000	1674.10700
5.02619	0.00000	1674.10700
5.03002	0.00000	1674.10700
5.03392	0.00000	1800.00000
5.03778	0.00000	1800.00000
5.04164	0.00000	1800.00000
5.04548	0.00000	2034.28300
5.04931	0.00000	2034.28300
5.05315	0.00000	2034.28300
5.05698	0.00000	2034.28300
5.06081	0.00000	2216.70500
5.06464	0.00000	2216.70500
5.06848	0.00000	2216.70500
5.07231	0.00000	2216.70500
5.07614	0.00000	2382.45400
5.07998	0.00000	2382.45400
5.08381	0.00000	2382.45400
5.08764	0.00000	2382.45400
5.09147	0.00000	2525.33800
5.09530	0.00000	2525.33800
5.09915	0.00000	2525.33800
5.10298	0.00000	2525.33800
5.10681	0.00000	2646.57000
5.11065	0.00000	2646.57000
5.11449	0.00000	2646.57000
5.11832	0.00000	2751.35800
5.12215	0.00000	2751.35800
5.12598	0.00000	2751.35800
5.12981	0.00000	2751.35800
5.13364	0.00000	2751.35800
5.13747	0.00000	2868.58900
5.14131	0.00000	2868.58900
5.14514	0.00000	2868.58900
5.14898	0.00000	2868.58900
5.15280	0.00000	2962.18400
5.15665	0.00000	2962.18400
5.16049	0.00000	2962.18400
5.16431	0.00000	2962.18400
5.16815	0.00000	3033.31600
5.17199	0.00000	3033.31600
5.17582	0.00000	3033.31600
5.17965	0.00000	3033.31600
5.18348	0.00000	3098.32300
5.18730	0.00000	3098.32300
5.19113	0.00000	3098.32300
5.19496	0.00000	3098.32300
5.19879	0.00000	3175.40300
5.20263	0.00000	3175.40300
5.20646	0.00000	3175.40300
5.21029	0.00000	3175.40300
5.21412	0.00000	3175.40300
5.21795	0.00000	3236.60700
5.22179	0.00000	3236.60700
5.22562	0.00000	3236.60700
5.22945	0.00000	3236.60700
5.23328	0.00000	3270.17700
5.23710	0.00000	3270.17700
5.24090	0.00000	3270.17700
5.24475	0.00000	3270.17700
5.24858	0.00000	3343.99600
5.25241	0.00000	3343.99600
5.25624	0.00000	3343.99600
5.26007	0.00000	3343.99600
5.26390	0.00000	3343.99600
5.26774	0.00000	3375.72600
5.27157	0.00000	3375.72600
5.27540	0.00000	3375.72600
5.27923	0.00000	3375.72600
5.28307	0.00000	3408.43000
5.28690	0.00000	3408.43000
5.29074	0.00000	3408.43000
5.29457	0.00000	3408.43000
5.29841	0.00000	3408.43000
5.30225	0.00000	3461.53800
5.30607	0.00000	3461.53800
5.30990	0.00000	3461.53800
5.31373	0.00000	3461.53800
5.31756	0.00000	3479.56700
5.32139	0.00000	3479.56700
5.32522	0.00000	3479.56700
5.32904	0.00000	3479.56700
5.33288	0.00000	3479.56700
5.33672	0.00000	3490.76600
5.34055	0.00000	3490.76600
5.34438	0.00000	3490.76600
5.34821	0.00000	3490.76600
5.35205	0.00000	3528.14900
5.35587	0.00000	3528.14900
5.35971	0.00000	3528.14900
5.36354	0.00000	3528.14900
5.36738	0.00000	3528.14900
5.37121	0.00000	3531.48400
5.37505	0.00000	3531.48400
5.37889	0.00000	3531.48400
5.38272	0.00000	3531.48400
5.38655	0.00000	3551.13600
5.39038	0.00000	3551.13600
5.39423	0.00000	3551.13600
5.39804	0.00000	3551.13600
5.40186	0.00000	3551.13600
5.40570	0.00000	3573.77800
5.40954	0.00000	3573.77800
5.41337	0.00000	3573.77800
5.41720	0.00000	3573.77800
5.42103	0.00000	3550.60600
5.42487	0.00000	3550.60600
5.42872	0.00000	3550.60600
5.43255	0.00000	3550.60600
5.43639	0.00000	3550.60600
5.44022	0.00000	3596.08200
5.44406	0.00000	3596.08200
5.44790	0.00000	3596.08200
5.45174	0.00000	3596.08200
5.45559	0.00000	3592.58400
5.45942	0.00000	3592.58400
5.46326	0.00000	3592.58400
5.46710	0.00000	3592.58400
5.47093	0.00000	3592.58400
5.47476	0.00000	3606.57600
5.47859	0.00000	3606.57600
5.48243	0.00000	3606.57600
5.48625	0.00000	3606.57600
5.49009	0.00000	3606.57600
5.49392	0.00000	3607.63900
5.49775	0.00000	3607.63900
5.50158	0.00000	3607.63900
5.50541	0.00000	3607.63900
5.50923	0.00000	3631.06300
5.51307	0.00000	3631.06300
5.51691	0.00000	3631.06300
5.52073	0.00000	3631.06300
5.52457	0.00000	3631.06300
5.52840	0.00000	3642.36100
5.53223	0.00000	3642.36100
5.53606	0.00000	3642.36100
5.53989	0.00000	3642.36100
5.54373	0.00000	3642.36100
5.54757	0.00000	3631.94400
5.55141	0.00000	3631.94400
5.55524	0.00000	3631.94400
5.55908	0.00000	3631.94400
5.56291	0.00000	3652.05200
5.56675	0.00000	3652.05200
5.57059	0.00000	3652.05200
5.57441	0.00000	3652.05200
5.57825	0.00000	3652.05200
5.58209	0.00000	3666.66600
5.58592	0.00000	3666.66600
5.58975	0.00000	3666.66600
5.59358	0.00000	3666.66600
5.59741	0.00000	3645.83300
5.60125	0.00000	3645.83300
5.60508	0.00000	3645.83300
5.60891	0.00000	3645.83300
5.61274	0.00000	3645.83300
5.61656	0.00000	3636.25900
5.62040	0.00000	3636.25900
5.62423	0.00000	3636.25900
5.62807	0.00000	3636.25900
5.63189	0.00000	3636.25900
5.63573	0.00000	3653.49200
5.63955	0.00000	3653.49200
5.64339	0.00000	3653.49200
5.64722	0.00000	3653.49200
5.65106	0.00000	3659.72200
5.65489	0.00000	3659.72200
5.65872	0.00000	3659.72200
5.66255	0.00000	3659.72200
5.66638	0.00000	3659.72200
5.67021	0.00000	3650.04600
5.67404	0.00000	3650.04600
5.67787	0.00000	3650.04600
5.68170	0.00000	3650.04600
5.68558	0.00000	3650.04600
5.68941	0.00000	3660.38600
5.69324	0.00000	3660.38600
5.69708	0.00000	3660.38600
5.70091	0.00000	3660.38600
5.70474	0.00000	3663.19400
5.70856	0.00000	3663.19400
5.71239	0.00000	3663.19400
5.71622	0.00000	3663.19400
5.72006	0.00000	3663.19400
5.72390	0.00000	3670.72600
5.72773	0.00000	3670.72600
5.73156	0.00000	3670.72600
5.73540	0.00000	3670.72600
5.73923	0.00000	3670.72600
5.74306	0.00000	3684.02700
5.74689	0.00000	3684.02700
5.75073	0.00000	3684.02700
5.75456	0.00000	3684.02700
5.75839	0.00000	3673.61100
5.76222	0.00000	3673.61100
5.76604	0.00000	3673.61100
5.76987	0.00000	3673.61100
5.77372	0.00000	3673.61100
5.77754	0.00000	3667.27900
5.78137	0.00000	3667.27900
5.78521	0.00000	3667.27900
5.78904	0.00000	3667.27900
5.79287	0.00000	3680.55500
5.79670	0.00000	3680.55500
5.80053	0.00000	3680.55500
5.80436	0.00000	3680.55500
5.80819	0.00000	3680.55500
5.81202	0.00000	3660.38600
5.81585	0.00000	3660.38600
5.81968	0.00000	3660.38600
5.82350	0.00000	3660.38600
5.82733	0.00000	3660.38600
5.83116	0.00000	3681.06600
5.83499	0.00000	3681.06600
5.83882	0.00000	3681.06600
5.84264	0.00000	3681.06600
5.84648	0.00000	3650.04600
5.85031	0.00000	3650.04600
5.85415	0.00000	3650.04600
5.85798	0.00000	3650.04600
5.86180	0.00000	3650.04600
5.86563	0.00000	3684.02700
5.86946	0.00000	3684.02700
5.87329	0.00000	3684.02700
5.87712	0.00000	3684.02700
5.88090	0.00000	3684.02700
5.88473	0.00000	3654.19700
5.88856	0.00000	3654.19700
5.89238	0.00000	3654.19700
5.89621	0.00000	3654.19700
5.90003	0.00000	3684.02700
5.90386	0.00000	3684.02700
5.90770	0.00000	3684.02700
5.91154	0.00000	3684.02700
5.91537	0.00000	3684.02700
5.91920	0.00000	3674.17200
5.92304	0.00000	3674.17200
5.92688	0.00000	3674.17200
5.93071	0.00000	3674.17200
5.93454	0.00000	3674.17200
5.93837	0.00000	3677.61900
5.94220	0.00000	3677.61900
5.94604	0.00000	3677.61900
5.94986	0.00000	3677.61900
5.95370	0.00000	3673.61100
5.95754	0.00000	3673.61100
5.96136	0.00000	3673.61100
5.96519	0.00000	3673.61100
5.96903	0.00000	3673.61100
5.97287	0.00000	3657.61800
5.97671	0.00000	3657.61800
5.98054	0.00000	3657.61800
5.98438	0.00000	3657.61800
5.98822	0.00000	3657.61800
5.99206	0.00000	3674.17200
5.99589	0.00000	3674.17200
5.99974	0.00000	3674.17200
6.00357	0.00000	3674.17200
6.00740	0.00000	3677.08300
6.01123	0.00000	3677.08300
6.01507	0.00000	3677.08300
6.01891	0.00000	3677.08300
6.02276	0.00000	3677.08300
6.02661	0.00000	3681.06600
6.03044	0.00000	3681.06600
6.03427	0.00000	3681.06600
6.03811	0.00000	3681.06600
6.04195	0.00000	3681.06600
6.04579	0.00000	3670.72600
6.04962	0.00000	3670.72600
6.05346	0.00000	3670.72600
6.05728	0.00000	3670.72600
6.06111	0.00000	3656.93900
6.06496	0.00000	3656.93900
6.06879	0.00000	3656.93900
6.07261	0.00000	3656.93900
6.07644	0.00000	3656.93900
6.08029	0.00000	3677.61900
6.08412	0.00000	3677.61900
6.08795	0.00000	3677.61900
6.09178	0.00000	3677.61900
6.09562	0.00000	3677.61900
6.09945	0.00000	3670.72600
6.10328	0.00000	3670.72600
6.10713	0.00000	3670.72600
6.11096	0.00000	3670.72600
6.11480	0.00000	3673.61100
6.11863	0.00000	3673.61100
6.12247	0.00000	3673.61100
6.12631	0.00000	3673.61100
6.13013	0.00000	3673.61100
6.13396	0.00000	3681.06600
6.13779	0.00000	3681.06600
6.14165	0.00000	3681.06600
6.14551	0.00000	3681.06600
6.14935	0.00000	3670.13800
6.15317	0.00000	3670.13800
6.15702	0.00000	3670.13800
6.16084	0.00000	3670.13800
6.16469	0.00000	3670.13800
6.16852	0.00000	3660.38600
6.17236	0.00000	3660.38600
6.17620	0.00000	3660.38600
6.18004	0.00000	3660.38600
6.18388	0.00000	3660.38600
6.18771	0.00000	3670.72600
6.19153	0.00000	3670.72600
6.19536	0.00000	3670.72600
6.19920	0.00000	3670.72600
6.20303	0.00000	3653.49200
6.20687	0.00000	3653.49200
6.21070	0.00000	3653.49200
6.21453	0.00000	3653.49200
6.21837	0.00000	3653.49200
6.22219	0.00000	3681.06600
6.22602	0.00000	3681.06600
6.22985	0.00000	3681.06600
6.23369	0.00000	3681.06600
6.23751	0.00000	3681.06600
6.24134	0.00000	3677.61900
6.24517	0.00000	3677.61900
6.24901	0.00000	3677.61900
6.25285	0.00000	3677.61900
6.25668	0.00000	3650.04600
6.26051	0.00000	3650.04600
6.26435	0.00000	3650.04600
6.26819	0.00000	3650.04600
6.27202	0.00000	3650.04600
6.27585	0.00000	3670.72600
6.27968	0.00000	3670.72600
6.28351	0.00000	3670.72600
6.28735	0.00000	3670.72600
6.29119	0.00000	3670.72600
6.29503	0.00000	3654.19700
6.29885	0.00000	3654.19700
6.30268	0.00000	3654.19700
6.30651	0.00000	3654.19700
6.31035	0.00000	3684.02700
6.31419	0.00000	3684.02700
6.31802	0.00000	3684.02700
6.32185	0.00000	3684.02700
6.32570	0.00000	3684.02700
6.32952	0.00000	3677.61900
6.33334	0.00000	3677.61900
6.33717	0.00000	3677.61900
6.34100	0.00000	3677.61900
6.34483	0.00000	3677.61900
6.34865	0.00000	3681.06600
6.35248	0.00000	3681.06600
6.35631	0.00000	3681.06600
6.36014	0.00000	3681.06600
6.36397	0.00000	3684.02700
6.36780	0.00000	3684.02700
6.37163	0.00000	3684.02700
6.37546	0.00000	3684.02700
6.37930	0.00000	3684.02700
6.38313	0.00000	3647.35400
6.38695	0.00000	3647.35400
6.39080	0.00000	3647.35400
6.39464	0.00000	3647.35400
6.39846	0.00000	3647.35400
6.40229	0.00000	3667.27900
6.40612	0.00000	3667.27900
6.40994	0.00000	3667.27900
6.41377	0.00000	3667.27900
6.41759	0.00000	3656.93900
6.42142	0.00000	3656.93900
6.42524	0.00000	3656.93900
6.42909	0.00000	3656.93900
6.43290	0.00000	3656.93900
6.43674	0.00000	3681.06600
6.44059	0.00000	3681.06600
6.44444	0.00000	3681.06600
6.44828	0.00000	3681.06600
6.45212	0.00000	3677.08300
6.45595	0.00000	3677.08300
6.45979	0.00000	3677.08300
6.46361	0.00000	3677.08300
6.46745	0.00000	3677.08300
6.47128	0.00000	3687.50000
6.47511	0.00000	3687.50000
6.47895	0.00000	3687.50000
6.48279	0.00000	3687.50000
6.48661	0.00000	3687.50000
6.49046	0.00000	3674.17200
6.49430	0.00000	3674.17200
6.49813	0.00000	3674.17200
6.50196	0.00000	3674.17200
6.50579	0.00000	3680.55500
6.50961	0.00000	3680.55500
6.51345	0.00000	3680.55500
6.51728	0.00000	3680.55500
6.52111	0.00000	3680.55500
6.52491	0.00000	3660.38600
6.52874	0.00000	3660.38600
6.53256	0.00000	3660.38600
6.53639	0.00000	3660.38600
6.54023	0.00000	3660.38600
6.54407	0.00000	3681.06600
6.54789	0.00000	3681.06600
6.55172	0.00000	3681.06600
6.55556	0.00000	3681.06600
6.55939	0.00000	3684.02700
6.56321	0.00000	3684.02700
6.56705	0.00000	3684.02700
6.57091	0.00000	3684.02700
6.57476	0.00000	3684.02700
6.57860	0.00000	3667.27900
6.58243	0.00000	3667.27900
6.58628	0.00000	3667.27900
6.59011	0.00000	3667.27900
6.59394	0.00000	3667.27900
6.59777	0.00000	3667.27900
6.60160	0.00000	3667.27900
6.60542	0.00000	3667.27900
6.60926	0.00000	3667.27900
6.61309	0.00000	3656.93900
6.61691	0.00000	3656.93900
6.62074	0.00000	3656.93900
6.62457	0.00000	3656.93900
6.62840	0.00000	3656.93900
6.63222	0.00000	3684.51300
6.63605	0.00000	3684.51300
6.63988	0.00000	3684.51300
6.64371	0.00000	3684.51300
6.64753	0.00000	3684.51300
6.65136	0.00000	3674.17200
6.65518	0.00000	3674.17200
6.65901	0.00000	3674.17200
6.66285	0.00000	3674.17200
6.66668	0.00000	3656.93900
6.67050	0.00000	3656.93900
6.67434	0.00000	3656.93900
6.67817	0.00000	3656.93900
6.68199	0.00000	3656.93900
6.68582	0.00000	3681.06600
6.68965	0.00000	3681.06600
6.69349	0.00000	3681.06600
6.69731	0.00000	3681.06600
6.70114	0.00000	3681.06600
6.70498	0.00000	3650.77500
6.70882	0.00000	3650.77500
6.71265	0.00000	3650.77500
6.71647	0.00000	3650.77500
6.72030	0.00000	3687.50000
6.72413	0.00000	3687.50000
6.72797	0.00000	3687.50000
6.73180	0.00000	3687.50000
6.73564	0.00000	3687.50000
6.73948	0.00000	3670.72600
6.74331	0.00000	3670.72600
6.74716	0.00000	3670.72600
6.75099	0.00000	3670.72600
6.75481	0.00000	3670.72600
6.75865	0.00000	3677.61900
6.76248	0.00000	3677.61900
6.76631	0.00000	3677.61900
6.77013	0.00000	3677.61900
6.77397	0.00000	3687.50000
6.77780	0.00000	3687.50000
6.78163	0.00000	3687.50000
6.78547	0.00000	3687.50000
6.78930	0.00000	3687.50000
6.79313	0.00000	3670.72600
6.79696	0.00000	3670.72600
6.80079	0.00000	3670.72600
6.80461	0.00000	3670.72600
6.80844	0.00000	3670.72600
6.81226	0.00000	3674.17200
6.81609	0.00000	3674.17200
6.81992	0.00000	3674.17200
6.82374	0.00000	3674.17200
6.82757	0.00000	3684.02700
6.83141	0.00000	3684.02700
6.83578	0.00000	3684.02700
6.83979	0.00000	3684.02700
6.84367	0.00000	3684.02700
6.84753	0.00000	3674.17200
6.85137	0.00000	3674.17200
6.85521	0.00000	3674.17200
6.85904	0.00000	3674.17200
6.86288	0.00000	3673.61100
6.86672	0.00000	3673.61100
6.87055	0.00000	3673.61100
6.87439	0.00000	3673.61100
6.87822	0.00000	3673.61100
6.88209	0.00000	3650.77500
6.88594	0.00000	3650.77500
6.88978	0.00000	3650.77500
6.89362	0.00000	3650.77500
6.89745	0.00000	3650.77500
6.90127	0.00000	3670.72600
6.90510	0.00000	3670.72600
6.90891	0.00000	3670.72600
6.91273	0.00000	3670.72600
6.91656	0.00000	3656.93900
6.92040	0.00000	3656.93900
6.92424	0.00000	3656.93900
6.92807	0.00000	3656.93900
6.93190	0.00000	3656.93900
6.93573	0.00000	3684.51300
6.93956	0.00000	3684.51300
6.94339	0.00000	3684.51300
6.94721	0.00000	3684.51300
6.95104	0.00000	3684.51300
6.95486	0.00000	3690.97200
6.95869	0.00000	3690.97200
6.96252	0.00000	3690.97200
6.96634	0.00000	3690.97200
6.97018	0.00000	3677.08300
6.97401	0.00000	3677.08300
6.97784	0.00000	3677.08300
6.98168	0.00000	3677.08300
6.98551	0.00000	3677.08300
6.98933	0.00000	3677.61900
6.99317	0.00000	3677.61900
6.99700	0.00000	3677.61900
7.00084	0.00000	3677.61900
7.00467	0.00000	3650.04600
7.00849	0.00000	3650.04600
7.01232	0.00000	3650.04600
7.01618	0.00000	3650.04600
7.02002	0.00000	3650.04600
7.02385	0.00000	3650.04600
7.02768	0.00000	3650.04600
7.03152	0.00000	3650.04600
7.03534	0.00000	3650.04600
7.03917	0.00000	3650.04600
7.04300	0.00000	3677.61900
7.04683	0.00000	3677.61900
7.05065	0.00000	3677.61900
7.05448	0.00000	3677.61900
7.05830	0.00000	3684.02700
7.06215	0.00000	3684.02700
7.06598	0.00000	3684.02700
7.06980	0.00000	3684.02700
7.07363	0.00000	3684.02700
7.07745	0.00000	3697.91600
7.08128	0.00000	3697.91600
7.08512	0.00000	3697.91600
7.08890	0.00000	3697.91600
7.09274	0.00000	3697.91600
7.09657	0.00000	3674.17200
7.10039	0.00000	3674.17200
7.10423	0.00000	3674.17200
7.10806	0.00000	3674.17200
7.11189	0.00000	3656.93900
7.11573	0.00000	3656.93900
7.11957	0.00000	3656.93900
7.12339	0.00000	3656.93900
7.12722	0.00000	3656.93900
7.13106	0.00000	3670.72600
7.13490	0.00000	3670.72600
7.13873	0.00000	3670.72600
7.14256	0.00000	3670.72600
7.14640	0.00000	3670.72600
7.15024	0.00000	3643.93200
7.15406	0.00000	3643.93200
7.15789	0.00000	3643.93200
7.16172	0.00000	3643.93200
7.16556	0.00000	3680.55500
7.16938	0.00000	3680.55500
7.17321	0.00000	3680.55500
7.17705	0.00000	3680.55500
7.18088	0.00000	3680.55500
7.18471	0.00000	3681.06600
7.18855	0.00000	3681.06600
7.19237	0.00000	3681.06600
7.19621	0.00000	3681.06600
7.20003	0.00000	3681.06600
7.20386	0.00000	3677.61900
7.20769	0.00000	3677.61900
7.21153	0.00000	3677.61900
7.21535	0.00000	3677.61900
7.21918	0.00000	3687.50000
7.22303	0.00000	3687.50000
7.22686	0.00000	3687.50000
7.23069	0.00000	3687.50000
7.23452	0.00000	3687.50000
7.23835	0.00000	3643.93200
7.24219	0.00000	3643.93200
7.24602	0.00000	3643.93200
7.24985	0.00000	3643.93200
7.25368	0.00000	3643.93200
7.25752	0.00000	3667.27900
7.26134	0.00000	3667.27900
7.26517	0.00000	3667.27900
7.26900	0.00000	3667.27900
7.27282	0.00000	3660.38600
7.27667	0.00000	3660.38600
7.28050	0.00000	3660.38600
7.28432	0.00000	3660.38600
7.28815	0.00000	3660.38600
7.29197	0.00000	3677.61900
7.29580	0.00000	3677.61900
7.29963	0.00000	3677.61900
7.30346	0.00000	3677.61900
7.30729	0.00000	3677.61900
7.31111	0.00000	3674.17200
7.31494	0.00000	3674.17200
7.31876	0.00000	3674.17200
7.32259	0.00000	3674.17200
7.32642	0.00000	3660.38600
7.33024	0.00000	3660.38600
7.33407	0.00000	3660.38600
7.33790	0.00000	3660.38600
7.34172	0.00000	3660.38600
7.34557	0.00000	3677.61900
7.34940	0.00000	3677.61900
7.35323	0.00000	3677.61900
7.35706	0.00000	3677.61900
7.36089	0.00000	3677.61900
7.36472	0.00000	3674.17200
7.36855	0.00000	3674.17200
7.37238	0.00000	3674.17200
7.37621	0.00000	3674.17200
7.38004	0.00000	3684.02700
7.38387	0.00000	3684.02700
7.38770	0.00000	3684.02700
7.39153	0.00000	3684.02700
7.39537	0.00000	3684.02700
7.39920	0.00000	3684.51300
7.40303	0.00000	3684.51300
7.40687	0.00000	3684.51300
7.41070	0.00000	3684.51300
7.41453	0.00000	3660.38600
7.41835	0.00000	3660.38600
7.42218	0.00000	3660.38600
7.42602	0.00000	3660.38600
7.42984	0.00000	3660.38600
7.43367	0.00000	3684.02700
7.43749	0.00000	3684.02700
7.44133	0.00000	3684.02700
7.44515	0.00000	3684.02700
7.44898	0.00000	3684.02700
7.45281	0.00000	3681.06600
7.45664	0.00000	3681.06600
7.46048	0.00000	3681.06600
7.46431	0.00000	3681.06600
7.46815	0.00000	3680.55500
7.47197	0.00000	3680.55500
7.47581	0.00000	3680.55500
7.47964	0.00000	3680.55500
7.48347	0.00000	3680.55500
7.48730	0.00000	3667.27900
7.49112	0.00000	3667.27900
7.49495	0.00000	3667.27900
7.49878	0.00000	3667.27900
7.50263	0.00000	3667.27900
7.50646	0.00000	3677.61900
7.51029	0.00000	3677.61900
7.51412	0.00000	3677.61900
7.51795	0.00000	3677.61900
7.52179	0.00000	3687.50000
7.52561	0.00000	3687.50000
7.52945	0.00000	3687.50000
7.53327	0.00000	3687.50000
7.53709	0.00000	3687.50000
7.54091	0.00000	3677.61900
7.54474	0.00000	3677.61900
7.54857	0.00000	3677.61900
7.55240	0.00000	3677.61900
7.55622	0.00000	3677.61900
7.56006	0.00000	3681.06600
7.56390	0.00000	3681.06600
7.56772	0.00000	3681.06600
7.57155	0.00000	3681.06600
7.57538	0.00000	3690.97200
7.57922	0.00000	3690.97200
7.58305	0.00000	3690.97200
7.58689	0.00000	3690.97200
7.59071	0.00000	3690.97200
7.59455	0.00000	3684.51300
7.59837	0.00000	3684.51300
7.60221	0.00000	3684.51300
7.60604	0.00000	3684.51300
7.60987	0.00000	3684.51300
7.61370	0.00000	3677.61900
7.61752	0.00000	3677.61900
7.62136	0.00000	3677.61900
7.62520	0.00000	3677.61900
7.62902	0.00000	3677.08300
7.63285	0.00000	3677.08300
7.63669	0.00000	3677.08300
7.64052	0.00000	3677.08300
7.64435	0.00000	3677.08300
7.64817	0.00000	3654.19700
7.65201	0.00000	3654.19700
7.65585	0.00000	3654.19700
7.65969	0.00000	3654.19700
7.66352	0.00000	3654.19700
7.66735	0.00000	3674.17200
7.67119	0.00000	3674.17200
7.67502	0.00000	3674.17200
7.67884	0.00000	3674.17200
7.68267	0.00000	3650.04600
7.68650	0.00000	3650.04600
7.69034	0.00000	3650.04600
7.69416	0.00000	3650.04600
7.69799	0.00000	3650.04600
7.70183	0.00000	3684.51300
7.70566	0.00000	3684.51300
7.70949	0.00000	3684.51300
7.71331	0.00000	3684.51300
7.71715	0.00000	3684.51300
7.72098	0.00000	3670.72600
7.72481	0.00000	3670.72600
7.72864	0.00000	3670.72600
7.73247	0.00000	3670.72600
7.73631	0.00000	3656.93900
7.74015	0.00000	3656.93900
7.74398	0.00000	3656.93900
7.74781	0.00000	3656.93900
7.75164	0.00000	3656.93900
7.75548	0.00000	3684.51300
7.75931	0.00000	3684.51300
7.76314	0.00000	3684.51300
7.76698	0.00000	3684.51300
7.77080	0.00000	3684.51300
7.77463	0.00000	3681.06600
7.77847	0.00000	3681.06600
7.78229	0.00000	3681.06600
7.78613	0.00000	3681.06600
7.78995	0.00000	3660.38600
7.79379	0.00000	3660.38600
7.79763	0.00000	3660.38600
7.80147	0.00000	3660.38600
7.80529	0.00000	3660.38600
7.80913	0.00000	3687.95900
7.81296	0.00000	3687.95900
7.81678	0.00000	3687.95900
7.82062	0.00000	3687.95900
7.82446	0.00000	3687.95900
7.82828	0.00000	3697.91600
7.83212	0.00000	3697.91600
7.83594	0.00000	3697.91600
7.83976	0.00000	3697.91600
7.84359	0.00000	3663.83200
7.84741	0.00000	3663.83200
7.85123	0.00000	3663.83200
7.85507	0.00000	3663.83200
7.85889	0.00000	3663.83200
7.86272	0.00000	3684.51300
7.86655	0.00000	3684.51300
7.87039	0.00000	3684.51300
7.87421	0.00000	3684.51300
7.87804	0.00000	3694.44400
7.88186	0.00000	3694.44400
7.88570	0.00000	3694.44400
7.88952	0.00000	3694.44400
7.89334	0.00000	3694.44400
7.89717	0.00000	3667.27900
7.90100	0.00000	3667.27900
7.90484	0.00000	3667.27900
7.90867	0.00000	3667.27900
7.91249	0.00000	3667.27900
7.91632	0.00000	3691.40600
7.92015	0.00000	3691.40600
7.92397	0.00000	3691.40600
7.92780	0.00000	3691.40600
7.93164	0.00000	3680.55500
7.93546	0.00000	3680.55500
7.93928	0.00000	3680.55500
7.94311	0.00000	3680.55500
7.94695	0.00000	3680.55500
7.95078	0.00000	3687.50000
7.95461	0.00000	3687.50000
7.95843	0.00000	3687.50000
7.96227	0.00000	3687.50000
7.96609	0.00000	3687.50000
7.96991	0.00000	3681.06600
7.97374	0.00000	3681.06600
7.97758	0.00000	3681.06600
7.98142	0.00000	3681.06600
7.98525	0.00000	3677.08300
7.98908	0.00000	3677.08300
7.99290	0.00000	3677.08300
7.99674	0.00000	3677.08300
8.00057	0.00000	3677.08300
8.00439	0.00000	3667.27900
8.00823	0.00000	3667.27900
8.01207	0.00000	3667.27900
8.01594	0.00000	3667.27900
8.01979	0.00000	3667.27900
8.02363	0.00000	3674.17200
8.02747	0.00000	3674.17200
8.03130	0.00000	3674.17200
8.03513	0.00000	3674.17200
8.03897	0.00000	3684.02700
8.04281	0.00000	3684.02700
8.04664	0.00000	3684.02700
8.05048	0.00000	3684.02700
8.05431	0.00000	3684.02700
8.05814	0.00000	3664.46100
8.06198	0.00000	3664.46100
8.06581	0.00000	3664.46100
8.06964	0.00000	3664.46100
8.07348	0.00000	3664.46100
8.07732	0.00000	3661.04000
8.08116	0.00000	3661.04000
8.08500	0.00000	3661.04000
8.08884	0.00000	3661.04000
8.09267	0.00000	3680.55500
8.09651	0.00000	3680.55500
8.10033	0.00000	3680.55500
8.10417	0.00000	3680.55500
8.10801	0.00000	3680.55500
8.11184	0.00000	3677.61900
8.11567	0.00000	3677.61900
8.11951	0.00000	3677.61900
8.12335	0.00000	3677.61900
8.12718	0.00000	3677.61900
8.13101	0.00000	3681.06600
8.13485	0.00000	3681.06600
8.13872	0.00000	3681.06600
8.14258	0.00000	3681.06600
8.14641	0.00000	3690.97200
8.15026	0.00000	3690.97200
8.15410	0.00000	3690.97200
8.15794	0.00000	3690.97200
8.16178	0.00000	3690.97200
8.16562	0.00000	3677.61900
8.16945	0.00000	3677.61900
8.17328	0.00000	3677.61900
8.17711	0.00000	3677.61900
8.18091	0.00000	3677.61900
8.18474	0.00000	3681.06600
8.18857	0.00000	3681.06600
8.19240	0.00000	3681.06600
8.19623	0.00000	3681.06600
8.20006	0.00000	3684.02700
8.20389	0.00000	3684.02700
8.20773	0.00000	3684.02700
8.21155	0.00000	3684.02700
8.21539	0.00000	3684.02700
8.21921	0.00000	3661.04000
8.22305	0.00000	3661.04000
8.22687	0.00000	3661.04000
8.23071	0.00000	3661.04000
8.23453	0.00000	3661.04000
8.23835	0.00000	3660.38600
8.24218	0.00000	3660.38600
8.24601	0.00000	3660.38600
8.24984	0.00000	3660.38600
8.25368	0.00000	3653.49200
8.25750	0.00000	3653.49200
8.26133	0.00000	3653.49200
8.26516	0.00000	3653.49200
8.26899	0.00000	3653.49200
8.27282	0.00000	3664.46100
8.27666	0.00000	3664.46100
8.28049	0.00000	3664.46100
8.28432	0.00000	3664.46100
8.28816	0.00000	3684.02700
8.29198	0.00000	3684.02700
8.29581	0.00000	3684.02700
8.29965	0.00000	3684.02700
8.30348	0.00000	3684.02700
8.30732	0.00000	3663.83200
8.31115	0.00000	3663.83200
8.31498	0.00000	3663.83200
8.31882	0.00000	3663.83200
8.32266	0.00000	3663.83200
8.32649	0.00000	3684.51300
8.33031	0.00000	3684.51300
8.33414	0.00000	3684.51300
8.33798	0.00000	3684.51300
8.34181	0.00000	3684.02700
8.34563	0.00000	3684.02700
8.34946	0.00000	3684.02700
8.35328	0.00000	3684.02700
8.35711	0.00000	3684.02700
8.36091	0.00000	3677.61900
8.36474	0.00000	3677.61900
8.36858	0.00000	3677.61900
8.37241	0.00000	3677.61900
8.37625	0.00000	3677.61900
8.38007	0.00000	3681.06600
8.38391	0.00000	3681.06600
8.38774	0.00000	3681.06600
8.39158	0.00000	3681.06600
8.39540	0.00000	3663.83200
8.39925	0.00000	3663.83200
8.40307	0.00000	3663.83200
8.40690	0.00000	3663.83200
8.41074	0.00000	3663.83200
8.41457	0.00000	3681.06600
8.41840	0.00000	3681.06600
8.42224	0.00000	3681.06600
8.42606	0.00000	3681.06600
8.42989	0.00000	3681.06600
8.43373	0.00000	3670.72600
8.43757	0.00000	3670.72600
8.44139	0.00000	3670.72600
8.44522	0.00000	3670.72600
8.44906	0.00000	3663.83200
8.45291	0.00000	3663.83200
8.45674	0.00000	3663.83200
8.46056	0.00000	3663.83200
8.46440	0.00000	3663.83200
8.46824	0.00000	3661.04000
8.47207	0.00000	3661.04000
8.47590	0.00000	3661.04000
8.47974	0.00000	3661.04000
8.48358	0.00000	3661.04000
8.48741	0.00000	3667.27900
8.49125	0.00000	3667.27900
8.49509	0.00000	3667.27900
8.49893	0.00000	3667.27900
8.50276	0.00000	3660.38600
8.50660	0.00000	3660.38600
8.51044	0.00000	3660.38600
8.51426	0.00000	3660.38600
8.51809	0.00000	3660.38600
8.52192	0.00000	3687.95900
8.52576	0.00000	3687.95900
8.52958	0.00000	3687.95900
8.53342	0.00000	3687.95900
8.53726	0.00000	3687.95900
8.54109	0.00000	3684.51300
8.54491	0.00000	3684.51300
8.54874	0.00000	3684.51300
8.55258	0.00000	3684.51300
8.55641	0.00000	3663.83200
8.56025	0.00000	3663.83200
8.56408	0.00000	3663.83200
8.56791	0.00000	3663.83200
8.57174	0.00000	3663.83200
8.57557	0.00000	3670.72600
8.57939	0.00000	3670.72600
8.58323	0.00000	3670.72600
8.58707	0.00000	3670.72600
8.59091	0.00000	3670.72600
8.59473	0.00000	3674.17200
8.59856	0.00000	3674.17200
8.60239	0.00000	3674.17200
8.60623	0.00000	3674.17200
8.61005	0.00000	3656.93900
8.61388	0.00000	3656.93900
8.61770	0.00000	3656.93900
8.62153	0.00000	3656.93900
8.62536	0.00000	3656.93900
8.62918	0.00000	3687.95900
8.63302	0.00000	3687.95900
8.63685	0.00000	3687.95900
8.64069	0.00000	3687.95900
8.64452	0.00000	3687.95900
8.64834	0.00000	3687.50000
8.65217	0.00000	3687.50000
8.65601	0.00000	3687.50000
8.65984	0.00000	3687.50000
8.66368	0.00000	3687.50000
8.66751	0.00000	3687.50000
8.67135	0.00000	3687.50000
8.67517	0.00000	3687.50000
8.67900	0.00000	3687.50000
8.68283	0.00000	3681.06600
8.68666	0.00000	3681.06600
8.69049	0.00000	3681.06600
8.69431	0.00000	3681.06600
8.69815	0.00000	3650.04600
8.70197	0.00000	3650.04600
8.70580	0.00000	3650.04600
8.70964	0.00000	3650.04600
8.71348	0.00000	3650.04600
8.71731	0.00000	3653.49200
8.72114	0.00000	3653.49200
8.72498	0.00000	3653.49200
8.72881	0.00000	3653.49200
8.73265	0.00000	3653.49200
8.73647	0.00000	3661.04000
8.74030	0.00000	3661.04000
8.74413	0.00000	3661.04000
8.74797	0.00000	3661.04000
8.75180	0.00000	3684.02700
8.75563	0.00000	3684.02700
8.75946	0.00000	3684.02700
8.76330	0.00000	3684.02700
8.76713	0.00000	3684.02700
8.77096	0.00000	3674.17200
8.77480	0.00000	3674.17200
8.77863	0.00000	3674.17200
8.78247	0.00000	3674.17200
8.78630	0.00000	3674.17200
8.79012	0.00000	3670.72600
8.79395	0.00000	3670.72600
8.79779	0.00000	3670.72600
8.80163	0.00000	3670.72600
8.80547	0.00000	3690.97200
8.80933	0.00000	3690.97200
8.81315	0.00000	3690.97200
8.81699	0.00000	3690.97200
8.82082	0.00000	3690.97200
8.82465	0.00000	3681.06600
8.82848	0.00000	3681.06600
8.83232	0.00000	3681.06600
8.83615	0.00000	3681.06600
8.84000	0.00000	3681.06600
8.84384	0.00000	3684.51300
8.84767	0.00000	3684.51300
8.85151	0.00000	3684.51300
8.85535	0.00000	3684.51300
8.85917	0.00000	3690.97200
8.86301	0.00000	3690.97200
8.86683	0.00000	3690.97200
8.87067	0.00000	3690.97200
8.87451	0.00000	3690.97200
8.87834	0.00000	3647.35400
8.88217	0.00000	3647.35400
8.88600	0.00000	3647.35400
8.88984	0.00000	3647.35400
8.89366	0.00000	3647.35400
8.89749	0.00000	3681.06600
8.90132	0.00000	3681.06600
8.90514	0.00000	3681.06600
8.90898	0.00000	3681.06600
8.91282	0.00000	3690.97200
8.91665	0.00000	3690.97200
8.92047	0.00000	3690.97200
8.92431	0.00000	3690.97200
8.92813	0.00000	3690.97200
8.93197	0.00000	3664.46100
8.93580	0.00000	3664.46100
8.93963	0.00000	3664.46100
8.94346	0.00000	3664.46100
8.94730	0.00000	3664.46100
8.95113	0.00000	3657.61800
8.95496	0.00000	3657.61800
8.95879	0.00000	3657.61800
8.96262	0.00000	3657.61800
8.96645	0.00000	3690.97200
8.97027	0.00000	3690.97200
8.97411	0.00000	3690.97200
8.97794	0.00000	3690.97200
8.98178	0.00000	3690.97200
8.98561	0.00000	3684.51300
8.98945	0.00000	3684.51300
8.99329	0.00000	3684.51300
8.99712	0.00000	3684.51300
9.00091	0.00000	3684.51300
9.00474	0.00000	3654.19700
9.00857	0.00000	3654.19700
9.01240	0.00000	3654.19700
9.01625	0.00000	3654.19700
9.02010	0.00000	3694.44400
9.02395	0.00000	3694.44400
9.02778	0.00000	3694.44400
9.03161	0.00000	3694.44400
9.03544	0.00000	3694.44400
9.03927	0.00000	3684.51300
9.04311	0.00000	3684.51300
9.04694	0.00000	3684.51300
9.05078	0.00000	3684.51300
9.05461	0.00000	3684.51300
9.05843	0.00000	3654.19700
9.06227	0.00000	3654.19700
9.06610	0.00000	3654.19700
9.06993	0.00000	3654.19700
9.07376	0.00000	3680.55500
9.07760	0.00000	3680.55500
9.08143	0.00000	3680.55500
9.08526	0.00000	3680.55500
9.08910	0.00000	3680.55500
9.09291	0.00000	3691.40600
9.09673	0.00000	3691.40600
9.10056	0.00000	3691.40600
9.10439	0.00000	3691.40600
9.10822	0.00000	3691.40600
9.11205	0.00000	3677.61900
9.11588	0.00000	3677.61900
9.11972	0.00000	3677.61900
9.12355	0.00000	3677.61900
9.12738	0.00000	3667.27900
9.13121	0.00000	3667.27900
9.13505	0.00000	3667.27900
9.13888	0.00000	3667.27900
9.14271	0.00000	3667.27900
9.14656	0.00000	3684.51300
9.15039	0.00000	3684.51300
9.15423	0.00000	3684.51300
9.15807	0.00000	3684.51300
9.16189	0.00000	3673.61100
9.16572	0.00000	3673.61100
9.16955	0.00000	3673.61100
9.17338	0.00000	3673.61100
9.17721	0.00000	3673.61100
9.18104	0.00000	3694.44400
9.18488	0.00000	3694.44400
9.18871	0.00000	3694.44400
9.19255	0.00000	3694.44400
9.19639	0.00000	3694.44400
9.20022	0.00000	3677.61900
9.20407	0.00000	3677.61900
9.20792	0.00000	3677.61900
9.21177	0.00000	3677.61900
9.21560	0.00000	3687.50000
9.21943	0.00000	3687.50000
9.22326	0.00000	3687.50000
9.22708	0.00000	3687.50000
9.23092	0.00000	3687.50000
9.23475	0.00000	3681.06600
9.23859	0.00000	3681.06600
9.24243	0.00000	3681.06600
9.24626	0.00000	3681.06600
9.25009	0.00000	3681.06600
9.25393	0.00000	3657.61800
9.25777	0.00000	3657.61800
9.26159	0.00000	3657.61800
9.26542	0.00000	3657.61800
9.26926	0.00000	3663.83200
9.27310	0.00000	3663.83200
9.27691	0.00000	3663.83200
9.28073	0.00000	3663.83200
9.28457	0.00000	3663.83200
9.28841	0.00000	3691.40600
9.29224	0.00000	3691.40600
9.29608	0.00000	3691.40600
9.29992	0.00000	3691.40600
9.30375	0.00000	3691.40600
9.30758	0.00000	3691.40600
9.31142	0.00000	3691.40600
9.31526	0.00000	3691.40600
9.31909	0.00000	3691.40600
9.32293	0.00000	3660.38600
9.32676	0.00000	3660.38600
9.33060	0.00000	3660.38600
9.33444	0.00000	3660.38600
9.33827	0.00000	3660.38600
9.34211	0.00000	3664.46100
9.34594	0.00000	3664.46100
9.34977	0.00000	3664.46100
9.35360	0.00000	3664.46100
9.35743	0.00000	3664.46100
9.36127	0.00000	3691.40600
9.36510	0.00000	3691.40600
9.36891	0.00000	3691.40600
9.37273	0.00000	3691.40600
9.37656	0.00000	3697.91600
9.38040	0.00000	3697.91600
9.38423	0.00000	3697.91600
9.38806	0.00000	3697.91600
9.39189	0.00000	3697.91600
9.39572	0.00000	3691.40600
9.39955	0.00000	3691.40600
9.40339	0.00000	3691.40600
9.40722	0.00000	3691.40600
9.41104	0.00000	3691.40600
9.41488	0.00000	3664.46100
9.41872	0.00000	3664.46100
9.42255	0.00000	3664.46100
9.42639	0.00000	3664.46100
9.43023	0.00000	3663.83200
9.43405	0.00000	3663.83200
9.43788	0.00000	3663.83200
9.44170	0.00000	3663.83200
9.44554	0.00000	3663.83200
9.44937	0.00000	3681.06600
9.45321	0.00000	3681.06600
9.45703	0.00000	3681.06600
9.46087	0.00000	3681.06600
9.46470	0.00000	3681.06600
9.46854	0.00000	3664.46100
9.47236	0.00000	3664.46100
9.47618	0.00000	3664.46100
9.48002	0.00000	3664.46100
9.48385	0.00000	3656.93900
9.48769	0.00000	3656.93900
9.49151	0.00000	3656.93900
9.49535	0.00000	3656.93900
9.49919	0.00000	3656.93900
9.50302	0.00000	3677.61900
9.50685	0.00000	3677.61900
9.51069	0.00000	3677.61900
9.51452	0.00000	3677.61900
9.51836	0.00000	3677.61900
9.52218	0.00000	3674.17200
9.52601	0.00000	3674.17200
9.52984	0.00000	3674.17200
9.53367	0.00000	3674.17200
9.53751	0.00000	3663.83200
9.54134	0.00000	3663.83200
9.54517	0.00000	3663.83200
9.54900	0.00000	3663.83200
9.55283	0.00000	3663.83200
9.55665	0.00000	3691.40600
9.56049	0.00000	3691.40600
9.56432	0.00000	3691.40600
9.56815	0.00000	3691.40600
9.57198	0.00000	3691.40600
9.57580	0.00000	3670.72600
9.57963	0.00000	3670.72600
9.58346	0.00000	3670.72600
9.58729	0.00000	3670.72600
9.59113	0.00000	3670.72600
9.59496	0.00000	3670.72600
9.59880	0.00000	3670.72600
9.60262	0.00000	3670.72600
9.60646	0.00000	3670.72600
9.61029	0.00000	3681.06600
9.61413	0.00000	3681.06600
9.61795	0.00000	3681.06600
9.62178	0.00000	3681.06600
9.62561	0.00000	3687.50000
9.62944	0.00000	3687.50000
9.63328	0.00000	3687.50000
9.63712	0.00000	3687.50000
9.64095	0.00000	3687.50000
9.64478	0.00000	3687.50000
9.64861	0.00000	3687.50000
9.65244	0.00000	3687.50000
9.65628	0.00000	3687.50000
9.66012	0.00000	3687.50000
9.66396	0.00000	3681.06600
9.66779	0.00000	3681.06600
9.67163	0.00000	3681.06600
9.67547	0.00000	3681.06600
9.67930	0.00000	3660.38600
9.68313	0.00000	3660.38600
9.68696	0.00000	3660.38600
9.69079	0.00000	3660.38600
9.69462	0.00000	3660.38600
9.69845	0.00000	3667.27900
9.70228	0.00000	3667.27900
9.70610	0.00000	3667.27900
9.70994	0.00000	3667.27900
9.71376	0.00000	3667.27900
9.71760	0.00000	3691.40600
9.72143	0.00000	3691.40600
9.72528	0.00000	3691.40600
9.72911	0.00000	3691.40600
9.73290	0.00000	3663.83200
9.73675	0.00000	3663.83200
9.74057	0.00000	3663.83200
9.74441	0.00000	3663.83200
9.74824	0.00000	3663.83200
9.75206	0.00000	3681.06600
9.75589	0.00000	3681.06600
9.75973	0.00000	3681.06600
9.76356	0.00000	3681.06600
9.76739	0.00000	3681.06600
9.77122	0.00000	3687.95900
9.77506	0.00000	3687.95900
9.77889	0.00000	3687.95900
9.78273	0.00000	3687.95900
9.78655	0.00000	3667.27900
9.79039	0.00000	3667.27900
9.79423	0.00000	3667.27900
9.79805	0.00000	3667.27900
9.80188	0.00000	3667.27900
9.80573	0.00000	3677.61900
9.80955	0.00000	3677.61900
9.81339	0.00000	3677.61900
9.81721	0.00000	3677.61900
9.82104	0.00000	3677.61900
9.82487	0.00000	3691.40600
9.82872	0.00000	3691.40600
9.83255	0.00000	3691.40600
9.83637	0.00000	3691.40600
9.84021	0.00000	3684.02700
9.84404	0.00000	3684.02700
9.84787	0.00000	3684.02700
9.85170	0.00000	3684.02700
9.85554	0.00000	3684.02700
9.85937	0.00000	3677.61900
9.86321	0.00000	3677.61900
9.86704	0.00000	3677.61900
9.87087	0.00000	3677.61900
9.87471	0.00000	3677.61900
9.87854	0.00000	3684.51300
9.88236	0.00000	3684.51300
9.88619	0.00000	3684.51300
9.89002	0.00000	3684.51300
9.89386	0.00000	3656.93900
9.89768	0.00000	3656.93900
9.90151	0.00000	3656.93900
9.90535	0.00000	3656.93900
9.90918	0.00000	3656.93900
9.91302	0.00000	3677.61900
9.91685	0.00000	3677.61900
9.92068	0.00000	3677.61900
9.92452	0.00000	3677.61900
9.92835	0.00000	3677.61900
9.93218	0.00000	3677.61900
9.93602	0.00000	3677.61900
9.93986	0.00000	3677.61900
9.94369	0.00000	3677.61900
9.94752	0.00000	3660.38600
9.95136	0.00000	3660.38600
9.95520	0.00000	3660.38600
9.95902	0.00000	3660.38600
9.96284	0.00000	3660.38600
9.96668	0.00000	3684.51300
9.97052	0.00000	3684.51300
9.97434	0.00000	3684.51300
9.97818	0.00000	3684.51300
9.98202	0.00000	3684.51300
9.98585	0.00000	3670.72600
9.98968	0.00000	3670.72600
9.99350	0.00000	3670.72600
9.99733	0.00000	3670.72600
