Time (s)   Thrust (N)   RPM
0.00033	0.00000	3481.63100
0.00423	0.00000	3481.63100
0.00808	0.00000	3481.63100
0.01191	0.00000	3483.17300
0.01574	0.00000	3483.17300
0.01959	0.00000	3483.17300
0.02350	0.00000	3483.17300
0.02737	0.00000	3429.08600
0.03122	0.00000	3429.08600
0.03505	0.00000	3429.08600
0.03887	0.00000	3429.08600
0.04270	0.00000	3332.92300
0.04653	0.00000	3332.92300
0.05037	0.00000	3332.92300
0.05420	0.00000	3332.92300
0.05803	0.00000	3332.92300
0.06182	0.00000	3236.25000
0.06565	0.00000	3236.25000
0.06947	0.00000	3236.25000
0.07329	0.00000	3236.25000
0.07710	0.00000	3136.43200
0.08093	0.00000	3136.43200
0.08476	0.00000	3136.43200
0.08859	0.00000	3136.43200
0.09242	0.00000	3031.50600
0.09625	0.00000	3031.50600
0.10008	0.00000	3031.50600
0.10391	0.00000	3031.50600
0.10777	0.00000	2964.84300
0.11160	0.00000	2964.84300
0.11543	0.00000	2964.84300
0.11926	0.00000	2964.84300
0.12310	0.00000	2883.40300
0.12694	0.00000	2883.40300
0.13078	0.00000	2883.40300
0.13460	0.00000	2883.40300
0.13842	0.00000	2816.47200
0.14227	0.00000	2816.47200
0.14610	0.00000	2816.47200
0.14992	0.00000	2816.47200
0.15378	0.00000	2764.00800
0.15764	0.00000	2764.00800
0.16149	0.00000	2764.00800
0.16532	0.00000	2764.00800
0.16914	0.00000	2706.52100
0.17298	0.00000	2706.52100
0.17681	0.00000	2706.52100
0.18063	0.00000	2706.52100
0.18447	0.00000	2652.13800
0.18830	0.00000	2652.13800
0.19213	0.00000	2652.13800
0.19595	0.00000	2652.13800
0.19978	0.00000	2605.08800
0.20360	0.00000	2605.08800
0.20743	0.00000	2605.08800
0.21125	0.00000	2605.08800
0.21508	0.00000	2557.19800
0.21891	0.00000	2557.19800
0.22273	0.00000	2557.19800
0.22656	0.00000	2557.19800
0.23038	0.00000	2525.33800
0.23420	0.00000	2525.33800
0.23802	0.00000	2525.33800
0.24182	0.00000	2525.33800
0.24565	0.00000	2466.21600
0.24947	0.00000	2466.21600
0.25330	0.00000	2466.21600
0.25712	0.00000	2438.36000
0.26095	0.00000	2438.36000
0.26478	0.00000	2438.36000
0.26860	0.00000	2438.36000
0.27243	0.00000	2395.35500
0.27626	0.00000	2395.35500
0.28009	0.00000	2395.35500
0.28391	0.00000	2395.35500
0.28774	0.00000	2356.65100
0.29157	0.00000	2356.65100
0.29539	0.00000	2356.65100
0.29921	0.00000	2356.65100
0.30304	0.00000	2313.64700
0.30686	0.00000	2313.64700
0.31068	0.00000	2313.64700
0.31451	0.00000	2274.30500
0.31833	0.00000	2274.30500
0.32216	0.00000	2274.30500
0.32599	0.00000	2274.30500
0.32982	0.00000	2243.92300
0.33364	0.00000	2243.92300
0.33746	0.00000	2243.92300
0.34128	0.00000	2243.92300
0.34510	0.00000	2238.60900
0.34893	0.00000	2238.60900
0.35275	0.00000	2238.60900
0.35657	0.00000	2238.60900
0.36040	0.00000	2215.50700
0.36422	0.00000	2215.50700
0.36806	0.00000	2215.50700
0.37189	0.00000	2191.96400
0.37571	0.00000	2191.96400
0.37953	0.00000	2191.96400
0.38336	0.00000	2191.96400
0.38720	0.00000	2162.44100
0.39102	0.00000	2162.44100
0.39485	0.00000	2162.44100
0.39868	0.00000	2133.92800
0.40250	0.00000	2133.92800
0.40632	0.00000	2133.92800
0.41015	0.00000	2133.92800
0.41397	0.00000	2107.14300
0.41780	0.00000	2107.14300
0.42163	0.00000	2107.14300
0.42546	0.00000	2107.14300
0.42929	0.00000	2089.28500
0.43312	0.00000	2089.28500
0.43694	0.00000	2089.28500
0.44077	0.00000	2077.82400
0.44461	0.00000	2077.82400
0.44843	0.00000	2077.82400
0.45225	0.00000	2077.82400
0.45608	0.00000	2044.64200
0.45990	0.00000	2044.64200
0.46372	0.00000	2044.64200
0.46755	0.00000	2044.64200
0.47137	0.00000	2041.76600
0.47520	0.00000	2041.76600
0.47903	0.00000	2041.76600
0.48285	0.00000	2025.18200
0.48667	0.00000	2025.18200
0.49049	0.00000	2025.18200
0.49431	0.00000	2025.18200
0.49813	0.00000	2001.20100
0.50196	0.00000	2001.20100
0.50578	0.00000	2001.20100
0.50961	0.00000	2003.67600
0.51343	0.00000	2003.67600
0.51725	0.00000	2003.67600
0.52107	0.00000	2003.67600
0.52491	0.00000	1984.22300
0.52873	0.00000	1984.22300
0.53255	0.00000	1984.22300
0.53638	0.00000	1971.50700
0.54020	0.00000	1971.50700
0.54403	0.00000	1971.50700
0.54785	0.00000	1971.50700
0.55168	0.00000	1962.31600
0.55550	0.00000	1962.31600
0.55933	0.00000	1962.31600
0.56317	0.00000	1943.93300
0.56699	0.00000	1943.93300
0.57082	0.00000	1943.93300
0.57465	0.00000	1943.93300
0.57847	0.00000	1920.95500
0.58233	0.00000	1920.95500
0.58617	0.00000	1920.95500
0.58999	0.00000	1920.95500
0.59382	0.00000	1911.76400
0.59764	0.00000	1911.76400
0.60147	0.00000	1911.76400
0.60529	0.00000	1888.78600
0.60912	0.00000	1888.78600
0.61294	0.00000	1888.78600
0.61677	0.00000	1888.78600
0.62059	0.00000	1893.38200
0.62442	0.00000	1893.38200
0.62825	0.00000	1893.38200
0.63207	0.00000	1888.92300
0.63589	0.00000	1888.92300
0.63971	0.00000	1888.92300
0.64353	0.00000	1888.92300
0.64735	0.00000	1870.40400
0.65117	0.00000	1870.40400
0.65500	0.00000	1870.40400
0.65883	0.00000	1865.71700
0.66265	0.00000	1865.71700
0.66648	0.00000	1865.71700
0.67031	0.00000	1865.71700
0.67414	0.00000	1847.42600
0.67795	0.00000	1847.42600
0.68177	0.00000	1847.42600
0.68561	0.00000	1837.87100
0.68943	0.00000	1837.87100
0.69326	0.00000	1837.87100
0.69708	0.00000	1837.87100
0.70091	0.00000	1829.04400
0.70473	0.00000	1829.04400
0.70855	0.00000	1829.04400
0.71237	0.00000	1819.30700
0.71619	0.00000	1819.30700
0.72002	0.00000	1819.30700
0.72385	0.00000	1819.30700
0.72767	0.00000	1823.94800
0.73151	0.00000	1823.94800
0.73533	0.00000	1823.94800
0.73915	0.00000	1818.75000
0.74297	0.00000	1818.75000
0.74679	0.00000	1818.75000
0.75062	0.00000	1818.75000
0.75445	0.00000	1823.43700
0.75828	0.00000	1823.43700
0.76212	0.00000	1823.43700
0.76596	0.00000	1809.37500
0.76979	0.00000	1809.37500
0.77363	0.00000	1809.37500
0.77746	0.00000	1809.37500
0.78129	0.00000	1804.68700
0.78511	0.00000	1804.68700
0.78895	0.00000	1804.68700
0.79277	0.00000	1790.62500
0.79659	0.00000	1790.62500
0.80041	0.00000	1790.62500
0.80423	0.00000	1781.25000
0.80806	0.00000	1781.25000
0.81188	0.00000	1781.25000
0.81572	0.00000	1781.25000
0.81955	0.00000	1781.25000
0.82337	0.00000	1781.25000
0.82720	0.00000	1781.25000
0.83103	0.00000	1785.03800
0.83485	0.00000	1785.03800
0.83867	0.00000	1785.03800
0.84249	0.00000	1785.03800
0.84633	0.00000	1776.56200
0.85015	0.00000	1776.56200
0.85398	0.00000	1776.56200
0.85781	0.00000	1780.30300
0.86164	0.00000	1780.30300
0.86546	0.00000	1780.30300
0.86928	0.00000	1780.30300
0.87311	0.00000	1767.18700
0.87695	0.00000	1767.18700
0.88078	0.00000	1767.18700
0.88460	0.00000	1770.83300
0.88842	0.00000	1770.83300
0.89224	0.00000	1770.83300
0.89607	0.00000	1770.83300
0.89990	0.00000	1757.81200
0.90372	0.00000	1757.81200
0.90755	0.00000	1757.81200
0.91137	0.00000	1743.75000
0.91520	0.00000	1743.75000
0.91903	0.00000	1743.75000
0.92286	0.00000	1743.75000
0.92669	0.00000	1748.43700
0.93053	0.00000	1748.43700
0.93435	0.00000	1748.43700
0.93818	0.00000	1751.89400
0.94199	0.00000	1751.89400
0.94582	0.00000	1751.89400
0.94964	0.00000	1747.15900
0.95346	0.00000	1747.15900
0.95728	0.00000	1747.15900
0.96111	0.00000	1747.15900
0.96493	0.00000	1742.42400
0.96875	0.00000	1742.42400
0.97257	0.00000	1742.42400
0.97641	0.00000	1737.68900
0.98023	0.00000	1737.68900
0.98405	0.00000	1737.68900
0.98788	0.00000	1737.68900
0.99170	0.00000	1729.68700
0.99552	0.00000	1729.68700
0.99934	0.00000	1729.68700
1.00316	0.00000	1732.95400
1.00699	0.00000	1732.95400
1.01081	0.00000	1732.95400
1.01463	0.00000	1732.95400
1.01846	0.00000	1720.31200
1.02230	0.00000	1720.31200
1.02613	0.00000	1720.31200
1.02996	0.00000	1728.21900
1.03379	0.00000	1728.21900
1.03763	0.00000	1728.21900
1.04147	0.00000	1728.21900
1.04530	0.00000	1715.62500
1.04913	0.00000	1715.62500
1.05295	0.00000	1715.62500
1.05677	0.00000	1718.75000
1.06060	0.00000	1718.75000
1.06442	0.00000	1718.75000
1.06824	0.00000	1718.75000
1.07206	0.00000	1718.75000
1.07589	0.00000	1718.75000
1.07971	0.00000	1718.75000
1.08353	0.00000	1714.01500
1.08735	0.00000	1714.01500
1.09118	0.00000	1714.01500
1.09501	0.00000	1696.87500
1.09884	0.00000	1696.87500
1.10266	0.00000	1696.87500
1.10649	0.00000	1696.87500
1.11031	0.00000	1706.25000
1.11413	0.00000	1706.25000
1.11796	0.00000	1706.25000
1.12178	0.00000	1709.28000
1.12561	0.00000	1709.28000
1.12943	0.00000	1709.28000
1.13326	0.00000	1709.28000
1.13708	0.00000	1701.56200
1.14091	0.00000	1701.56200
1.14473	0.00000	1701.56200
1.14856	0.00000	1704.54500
1.15238	0.00000	1704.54500
1.15621	0.00000	1704.54500
1.16004	0.00000	1704.54500
1.16388	0.00000	1704.54500
1.16771	0.00000	1704.54500
1.17155	0.00000	1704.54500
1.17538	0.00000	1704.54500
1.17920	0.00000	1704.54500
1.18302	0.00000	1704.54500
1.18684	0.00000	1695.07500
1.19067	0.00000	1695.07500
1.19450	0.00000	1695.07500
1.19832	0.00000	1695.07500
1.20214	0.00000	1692.18700
1.20597	0.00000	1692.18700
1.20980	0.00000	1692.18700
1.21364	0.00000	1690.34000
1.21746	0.00000	1690.34000
1.22129	0.00000	1690.34000
1.22511	0.00000	1690.34000
1.22893	0.00000	1687.50000
1.23276	0.00000	1687.50000
1.23658	0.00000	1687.50000
1.24041	0.00000	1690.34000
1.24423	0.00000	1690.34000
1.24805	0.00000	1690.34000
1.25187	0.00000	1690.34000
1.25569	0.00000	1678.12500
1.25952	0.00000	1678.12500
1.26334	0.00000	1678.12500
1.26717	0.00000	1690.34000
1.27095	0.00000	1690.34000
1.27477	0.00000	1690.34000
1.27860	0.00000	1707.58900
1.28242	0.00000	1707.58900
1.28624	0.00000	1707.58900
1.29007	0.00000	1707.58900
1.29390	0.00000	1690.34000
1.29772	0.00000	1690.34000
1.30155	0.00000	1690.34000
1.30537	0.00000	1685.60600
1.30919	0.00000	1685.60600
1.31301	0.00000	1685.60600
1.31684	0.00000	1685.60600
1.32066	0.00000	1699.81000
1.32448	0.00000	1699.81000
1.32831	0.00000	1699.81000
1.33214	0.00000	1680.87100
1.33596	0.00000	1680.87100
1.33979	0.00000	1680.87100
1.34361	0.00000	1680.87100
1.34743	0.00000	1690.34000
1.35125	0.00000	1690.34000
1.35507	0.00000	1690.34000
1.35889	0.00000	1676.13600
1.36272	0.00000	1676.13600
1.36654	0.00000	1676.13600
1.37037	0.00000	1680.87100
1.37419	0.00000	1680.87100
1.37802	0.00000	1680.87100
1.38182	0.00000	1680.87100
1.38564	0.00000	1673.43700
1.38946	0.00000	1673.43700
1.39329	0.00000	1673.43700
1.39711	0.00000	1676.13600
1.40097	0.00000	1676.13600
1.40480	0.00000	1676.13600
1.40862	0.00000	1676.13600
1.41245	0.00000	1690.34000
1.41627	0.00000	1690.34000
1.42009	0.00000	1690.34000
1.42392	0.00000	1676.13600
1.42775	0.00000	1676.13600
1.43157	0.00000	1676.13600
1.43540	0.00000	1676.13600
1.43922	0.00000	1676.13600
1.44304	0.00000	1676.13600
1.44687	0.00000	1676.13600
1.45069	0.00000	1676.13600
1.45451	0.00000	1676.13600
1.45833	0.00000	1676.13600
1.46215	0.00000	1676.13600
1.46598	0.00000	1676.13600
1.46981	0.00000	1676.13600
1.47364	0.00000	1676.13600
1.47747	0.00000	1685.60600
1.48130	0.00000	1685.60600
1.48512	0.00000	1685.60600
1.48894	0.00000	1676.13600
1.49276	0.00000	1676.13600
1.49659	0.00000	1676.13600
1.50041	0.00000	1676.13600
1.50424	0.00000	1668.75000
1.50806	0.00000	1668.75000
1.51188	0.00000	1668.75000
1.51570	0.00000	1671.40100
1.51952	0.00000	1671.40100
1.52334	0.00000	1671.40100
1.52717	0.00000	1671.40100
1.53095	0.00000	1671.40100
1.53478	0.00000	1671.40100
1.53860	0.00000	1671.40100
1.54242	0.00000	1666.66600
1.54626	0.00000	1666.66600
1.55008	0.00000	1666.66600
1.55390	0.00000	1671.40100
1.55772	0.00000	1671.40100
1.56154	0.00000	1671.40100
1.56537	0.00000	1671.40100
1.56920	0.00000	1668.75000
1.57302	0.00000	1668.75000
1.57684	0.00000	1668.75000
1.58067	0.00000	1671.40100
1.58449	0.00000	1671.40100
1.58832	0.00000	1671.40100
1.59214	0.00000	1671.40100
1.59597	0.00000	1676.13600
1.59979	0.00000	1676.13600
1.60361	0.00000	1676.13600
1.60744	0.00000	1683.67300
1.61126	0.00000	1683.67300
1.61508	0.00000	1683.67300
1.61891	0.00000	1683.67300
1.62273	0.00000	1683.67300
1.62655	0.00000	1683.67300
1.63037	0.00000	1683.67300
1.63419	0.00000	1676.13600
1.63801	0.00000	1676.13600
1.64182	0.00000	1676.13600
1.64564	0.00000	1666.66600
1.64946	0.00000	1666.66600
1.65328	0.00000	1666.66600
1.65710	0.00000	1666.66600
1.66093	0.00000	1676.13600
1.66476	0.00000	1676.13600
1.66858	0.00000	1676.13600
1.67241	0.00000	1683.67300
1.67624	0.00000	1683.67300
1.68006	0.00000	1683.67300
1.68388	0.00000	1683.67300
1.68770	0.00000	1671.40100
1.69152	0.00000	1671.40100
1.69535	0.00000	1671.40100
1.69917	0.00000	1666.66600
1.70299	0.00000	1666.66600
1.70681	0.00000	1666.66600
1.71064	0.00000	1666.66600
1.71446	0.00000	1666.66600
1.71828	0.00000	1666.66600
1.72211	0.00000	1666.66600
1.72593	0.00000	1671.40100
1.72976	0.00000	1671.40100
1.73358	0.00000	1671.40100
1.73741	0.00000	1666.66600
1.74123	0.00000	1666.66600
1.74505	0.00000	1666.66600
1.74888	0.00000	1666.66600
1.75270	0.00000	1654.68700
1.75654	0.00000	1654.68700
1.76037	0.00000	1654.68700
1.76419	0.00000	1678.89000
1.76801	0.00000	1678.89000
1.77185	0.00000	1678.89000
1.77567	0.00000	1678.89000
1.77949	0.00000	1671.40100
1.78331	0.00000	1671.40100
1.78713	0.00000	1671.40100
1.79095	0.00000	1666.66600
1.79477	0.00000	1666.66600
1.79859	0.00000	1666.66600
1.80241	0.00000	1666.66600
1.80625	0.00000	1666.66600
1.81007	0.00000	1666.66600
1.81389	0.00000	1666.66600
1.81772	0.00000	1676.13600
1.82154	0.00000	1676.13600
1.82537	0.00000	1676.13600
1.82919	0.00000	1678.89000
1.83301	0.00000	1678.89000
1.83684	0.00000	1678.89000
1.84066	0.00000	1678.89000
1.84449	0.00000	1676.13600
1.84831	0.00000	1676.13600
1.85213	0.00000	1676.13600
1.85595	0.00000	1661.93100
1.85977	0.00000	1661.93100
1.86359	0.00000	1661.93100
1.86742	0.00000	1661.93100
1.87124	0.00000	1661.93100
1.87506	0.00000	1661.93100
1.87889	0.00000	1661.93100
1.88272	0.00000	1666.66600
1.88653	0.00000	1666.66600
1.89036	0.00000	1666.66600
1.89418	0.00000	1678.89000
1.89801	0.00000	1678.89000
1.90182	0.00000	1678.89000
1.90564	0.00000	1678.89000
1.90947	0.00000	1654.68700
1.91329	0.00000	1654.68700
1.91711	0.00000	1654.68700
1.92093	0.00000	1666.66600
1.92475	0.00000	1666.66600
1.92859	0.00000	1666.66600
1.93241	0.00000	1666.66600
1.93623	0.00000	1671.40100
1.94006	0.00000	1671.40100
1.94388	0.00000	1671.40100
1.94770	0.00000	1661.93100
1.95152	0.00000	1661.93100
1.95534	0.00000	1661.93100
1.95917	0.00000	1661.93100
1.96300	0.00000	1661.93100
1.96682	0.00000	1661.93100
1.97065	0.00000	1661.93100
1.97447	0.00000	1666.66600
1.97830	0.00000	1666.66600
1.98212	0.00000	1666.66600
1.98595	0.00000	1678.89000
1.98978	0.00000	1678.89000
1.99361	0.00000	1678.89000
1.99744	0.00000	1678.89000
2.00126	0.00000	1659.37500
2.00509	0.00000	1659.37500
2.00891	0.00000	1659.37500
2.01274	0.00000	1661.93100
2.01656	0.00000	1661.93100
2.02038	0.00000	1661.93100
2.02421	0.00000	1661.93100
2.02807	0.00000	1661.93100
2.03189	0.00000	1661.93100
2.03573	0.00000	1661.93100
2.03955	0.00000	1661.93100
2.04338	0.00000	1661.93100
2.04720	0.00000	1661.93100
2.05102	0.00000	1657.19600
2.05485	0.00000	1657.19600
2.05868	0.00000	1657.19600
2.06250	0.00000	1657.19600
2.06632	0.00000	1676.13600
2.07014	0.00000	1676.13600
2.07396	0.00000	1676.13600
2.07779	0.00000	1683.67300
2.08162	0.00000	1683.67300
2.08544	0.00000	1683.67300
2.08927	0.00000	1683.67300
2.09309	0.00000	1671.40100
2.09691	0.00000	1671.40100
2.10074	0.00000	1671.40100
2.10457	0.00000	1661.93100
2.10839	0.00000	1661.93100
2.11221	0.00000	1661.93100
2.11603	0.00000	1657.19600
2.11986	0.00000	1657.19600
2.12368	0.00000	1657.19600
2.12751	0.00000	1657.19600
2.13132	0.00000	1671.40100
2.13515	0.00000	1671.40100
2.13899	0.00000	1671.40100
2.14281	0.00000	1661.93100
2.14663	0.00000	1661.93100
2.15046	0.00000	1661.93100
2.15430	0.00000	1661.93100
2.15812	0.00000	1666.66600
2.16194	0.00000	1666.66600
2.16577	0.00000	1666.66600
2.16961	0.00000	1678.89000
2.17343	0.00000	1678.89000
2.17725	0.00000	1678.89000
2.18107	0.00000	1683.67300
2.18489	0.00000	1683.67300
2.18871	0.00000	1683.67300
2.19253	0.00000	1683.67300
2.19636	0.00000	1661.93100
2.20018	0.00000	1661.93100
2.20401	0.00000	1661.93100
2.20783	0.00000	1661.93100
2.21166	0.00000	1661.93100
2.21548	0.00000	1661.93100
2.21930	0.00000	1661.93100
2.22312	0.00000	1671.40100
2.22694	0.00000	1671.40100
2.23077	0.00000	1671.40100
2.23459	0.00000	1657.19600
2.23842	0.00000	1657.19600
2.24224	0.00000	1657.19600
2.24606	0.00000	1657.19600
2.24988	0.00000	1671.40100
2.25370	0.00000	1671.40100
2.25752	0.00000	1671.40100
2.26134	0.00000	1674.10700
2.26516	0.00000	1674.10700
2.26899	0.00000	1674.10700
2.27281	0.00000	1674.10700
2.27664	0.00000	1674.10700
2.28046	0.00000	1674.10700
2.28428	0.00000	1674.10700
2.28810	0.00000	1666.66600
2.29192	0.00000	1666.66600
2.29574	0.00000	1666.66600
2.29957	0.00000	1678.89000
2.30338	0.00000	1678.89000
2.30721	0.00000	1678.89000
2.31103	0.00000	1678.89000
2.31485	0.00000	1676.13600
2.31868	0.00000	1676.13600
2.32250	0.00000	1676.13600
2.32632	0.00000	1661.93100
2.33014	0.00000	1661.93100
2.33396	0.00000	1661.93100
2.33779	0.00000	1661.93100
2.34162	0.00000	1666.66600
2.34544	0.00000	1666.66600
2.34926	0.00000	1666.66600
2.35308	0.00000	1678.89000
2.35691	0.00000	1678.89000
2.36073	0.00000	1678.89000
2.36456	0.00000	1674.10700
2.36840	0.00000	1674.10700
2.37222	0.00000	1674.10700
2.37605	0.00000	1674.10700
2.37987	0.00000	1654.68700
2.38370	0.00000	1654.68700
2.38752	0.00000	1654.68700
2.39134	0.00000	1657.19600
2.39517	0.00000	1657.19600
2.39900	0.00000	1657.19600
2.40283	0.00000	1657.19600
2.40665	0.00000	1671.40100
2.41048	0.00000	1671.40100
2.41430	0.00000	1671.40100
2.41812	0.00000	1657.19600
2.42195	0.00000	1657.19600
2.42577	0.00000	1657.19600
2.42960	0.00000	1661.93100
2.43342	0.00000	1661.93100
2.43724	0.00000	1661.93100
2.44106	0.00000	1661.93100
2.44489	0.00000	1678.89000
2.44871	0.00000	1678.89000
2.45254	0.00000	1678.89000
2.45637	0.00000	1678.89000
2.46021	0.00000	1678.89000
2.46403	0.00000	1678.89000
2.46785	0.00000	1678.89000
2.47168	0.00000	1654.68700
2.47550	0.00000	1654.68700
2.47932	0.00000	1654.68700
2.48315	0.00000	1674.10700
2.48697	0.00000	1674.10700
2.49079	0.00000	1674.10700
2.49461	0.00000	1674.10700
2.49844	0.00000	1671.40100
2.50226	0.00000	1671.40100
2.50608	0.00000	1671.40100
2.50991	0.00000	1661.93100
2.51373	0.00000	1661.93100
2.51755	0.00000	1661.93100
2.52138	0.00000	1661.93100
2.52521	0.00000	1661.93100
2.52903	0.00000	1661.93100
2.53285	0.00000	1661.93100
2.53667	0.00000	1671.40100
2.54049	0.00000	1671.40100
2.54432	0.00000	1671.40100
2.54814	0.00000	1678.89000
2.55196	0.00000	1678.89000
2.55579	0.00000	1678.89000
2.55961	0.00000	1678.89000
2.56343	0.00000	1650.00000
2.56726	0.00000	1650.00000
2.57109	0.00000	1650.00000
2.57491	0.00000	1661.93100
2.57874	0.00000	1661.93100
2.58256	0.00000	1661.93100
2.58638	0.00000	1674.10700
2.59020	0.00000	1674.10700
2.59403	0.00000	1674.10700
2.59782	0.00000	1674.10700
2.60166	0.00000	1661.93100
2.60548	0.00000	1661.93100
2.60930	0.00000	1661.93100
2.61312	0.00000	1661.93100
2.61694	0.00000	1661.93100
2.62076	0.00000	1661.93100
2.62459	0.00000	1661.93100
2.62842	0.00000	1671.40100
2.63224	0.00000	1671.40100
2.63607	0.00000	1671.40100
2.63989	0.00000	1661.93100
2.64372	0.00000	1661.93100
2.64754	0.00000	1661.93100
2.65136	0.00000	1661.93100
2.65518	0.00000	1654.68700
2.65901	0.00000	1654.68700
2.66284	0.00000	1654.68700
2.66667	0.00000	1674.10700
2.67049	0.00000	1674.10700
2.67431	0.00000	1674.10700
2.67813	0.00000	1678.89000
2.68195	0.00000	1678.89000
2.68578	0.00000	1678.89000
2.68961	0.00000	1678.89000
2.69343	0.00000	1666.66600
2.69726	0.00000	1666.66600
2.70108	0.00000	1666.66600
2.70490	0.00000	1661.93100
2.70872	0.00000	1661.93100
2.71254	0.00000	1661.93100
2.71636	0.00000	1661.93100
2.72018	0.00000	1671.40100
2.72400	0.00000	1671.40100
2.72784	0.00000	1671.40100
2.73167	0.00000	1657.19600
2.73550	0.00000	1657.19600
2.73933	0.00000	1657.19600
2.74315	0.00000	1657.19600
2.74697	0.00000	1661.93100
2.75079	0.00000	1661.93100
2.75461	0.00000	1661.93100
2.75844	0.00000	1678.89000
2.76227	0.00000	1678.89000
2.76609	0.00000	1678.89000
2.76992	0.00000	1674.10700
2.77375	0.00000	1674.10700
2.77757	0.00000	1674.10700
2.78139	0.00000	1674.10700
2.78521	0.00000	1654.68700
2.78904	0.00000	1654.68700
2.79286	0.00000	1654.68700
2.79668	0.00000	1657.19600
2.80050	0.00000	1657.19600
2.80432	0.00000	1657.19600
2.80816	0.00000	1657.19600
2.81198	0.00000	1671.40100
2.81580	0.00000	1671.40100
2.81962	0.00000	1671.40100
2.82344	0.00000	1666.66600
2.82726	0.00000	1666.66600
2.83109	0.00000	1666.66600
2.83491	0.00000	1661.93100
2.83874	0.00000	1661.93100
2.84256	0.00000	1661.93100
2.84638	0.00000	1661.93100
2.85021	0.00000	1678.89000
2.85403	0.00000	1678.89000
2.85782	0.00000	1678.89000
2.86165	0.00000	1678.89000
2.86547	0.00000	1678.89000
2.86929	0.00000	1678.89000
2.87311	0.00000	1678.89000
2.87693	0.00000	1654.68700
2.88075	0.00000	1654.68700
2.88457	0.00000	1654.68700
2.88839	0.00000	1661.93100
2.89221	0.00000	1661.93100
2.89604	0.00000	1661.93100
2.89987	0.00000	1661.93100
2.90370	0.00000	1671.40100
2.90753	0.00000	1671.40100
2.91135	0.00000	1671.40100
2.91518	0.00000	1657.19600
2.91900	0.00000	1657.19600
2.92282	0.00000	1657.19600
2.92665	0.00000	1661.93100
2.93047	0.00000	1661.93100
2.93429	0.00000	1661.93100
2.93811	0.00000	1661.93100
2.94193	0.00000	1671.40100
2.94577	0.00000	1671.40100
2.94959	0.00000	1671.40100
2.95341	0.00000	1674.10700
2.95724	0.00000	1674.10700
2.96106	0.00000	1674.10700
2.96488	0.00000	1674.10700
2.96870	0.00000	1654.68700
2.97252	0.00000	1654.68700
2.97635	0.00000	1654.68700
2.98018	0.00000	1661.93100
2.98400	0.00000	1661.93100
2.98782	0.00000	1661.93100
2.99165	0.00000	1661.93100
2.99548	0.00000	1661.93100
2.99930	0.00000	1661.93100
3.00312	0.00000	1661.93100
3.00694	0.00000	1666.66600
3.01076	0.00000	1666.66600
3.01459	0.00000	1666.66600
3.01841	0.00000	1661.93100
3.02225	0.00000	1661.93100
3.02607	0.00000	1661.93100
3.02990	0.00000	1661.93100
3.03372	0.00000	1671.40100
3.03754	0.00000	1671.40100
3.04137	0.00000	1671.40100
3.04519	0.00000	1678.89000
3.04902	0.00000	1678.89000
3.05284	0.00000	1678.89000
3.05667	0.00000	1678.89000
3.06049	0.00000	1666.66600
3.06433	0.00000	1666.66600
3.06817	0.00000	1666.66600
3.07199	0.00000	1661.93100
3.07583	0.00000	1661.93100
3.07967	0.00000	1661.93100
3.08349	0.00000	1666.66600
3.08732	0.00000	1666.66600
3.09115	0.00000	1666.66600
3.09497	0.00000	1666.66600
3.09880	0.00000	1666.66600
3.10262	0.00000	1666.66600
3.10644	0.00000	1666.66600
3.11027	0.00000	1657.19600
3.11409	0.00000	1657.19600
3.11792	0.00000	1657.19600
3.12174	0.00000	1657.19600
3.12556	0.00000	1671.40100
3.12938	0.00000	1671.40100
3.13320	0.00000	1671.40100
3.13702	0.00000	1678.89000
3.14084	0.00000	1678.89000
3.14466	0.00000	1678.89000
3.14848	0.00000	1678.89000
3.15231	0.00000	1688.45600
3.15613	0.00000	1688.45600
3.15995	0.00000	1688.45600
3.16377	0.00000	1661.93100
3.16760	0.00000	1661.93100
3.17143	0.00000	1661.93100
3.17525	0.00000	1661.93100
3.17907	0.00000	1661.93100
3.18289	0.00000	1661.93100
3.18671	0.00000	1661.93100
3.19054	0.00000	1676.13600
3.19436	0.00000	1676.13600
3.19818	0.00000	1676.13600
3.20200	0.00000	1661.93100
3.20582	0.00000	1661.93100
3.20966	0.00000	1661.93100
3.21348	0.00000	1661.93100
3.21730	0.00000	1654.68700
3.22112	0.00000	1654.68700
3.22495	0.00000	1654.68700
3.22877	0.00000	1678.89000
3.23259	0.00000	1678.89000
3.23643	0.00000	1678.89000
3.24025	0.00000	1678.89000
3.24408	0.00000	1678.89000
3.24790	0.00000	1678.89000
3.25172	0.00000	1678.89000
3.25554	0.00000	1661.93100
3.25936	0.00000	1661.93100
3.26319	0.00000	1661.93100
3.26702	0.00000	1657.19600
3.27085	0.00000	1657.19600
3.27467	0.00000	1657.19600
3.27850	0.00000	1657.19600
3.28233	0.00000	1671.40100
3.28616	0.00000	1671.40100
3.28998	0.00000	1671.40100
3.29380	0.00000	1661.93100
3.29763	0.00000	1661.93100
3.30146	0.00000	1661.93100
3.30528	0.00000	1661.93100
3.30910	0.00000	1661.93100
3.31293	0.00000	1661.93100
3.31675	0.00000	1661.93100
3.32058	0.00000	1674.10700
3.32440	0.00000	1674.10700
3.32822	0.00000	1674.10700
3.33204	0.00000	1678.89000
3.33587	0.00000	1678.89000
3.33969	0.00000	1678.89000
3.34351	0.00000	1678.89000
3.34733	0.00000	1650.00000
3.35115	0.00000	1650.00000
3.35498	0.00000	1650.00000
3.35880	0.00000	1678.89000
3.36262	0.00000	1678.89000
3.36644	0.00000	1678.89000
3.37026	0.00000	1678.89000
3.37408	0.00000	1676.13600
3.37790	0.00000	1676.13600
3.38173	0.00000	1676.13600
3.38556	0.00000	1661.93100
3.38939	0.00000	1661.93100
3.39321	0.00000	1661.93100
3.39703	0.00000	1661.93100
3.40085	0.00000	1661.93100
3.40468	0.00000	1661.93100
3.40851	0.00000	1661.93100
3.41233	0.00000	1678.89000
3.41615	0.00000	1678.89000
3.41998	0.00000	1678.89000
3.42380	0.00000	1674.10700
3.42762	0.00000	1674.10700
3.43144	0.00000	1674.10700
3.43527	0.00000	1674.10700
3.43909	0.00000	1654.68700
3.44291	0.00000	1654.68700
3.44674	0.00000	1654.68700
3.45057	0.00000	1674.10700
3.45440	0.00000	1674.10700
3.45823	0.00000	1674.10700
3.46205	0.00000	1674.10700
3.46587	0.00000	1671.40100
3.46970	0.00000	1671.40100
3.47352	0.00000	1671.40100
3.47734	0.00000	1661.93100
3.48116	0.00000	1661.93100
3.48498	0.00000	1661.93100
3.48881	0.00000	1657.19600
3.49264	0.00000	1657.19600
3.49647	0.00000	1657.19600
3.50029	0.00000	1657.19600
3.50411	0.00000	1671.40100
3.50793	0.00000	1671.40100
3.51175	0.00000	1671.40100
3.51558	0.00000	1678.89000
3.51940	0.00000	1678.89000
3.52322	0.00000	1678.89000
3.52704	0.00000	1678.89000
3.53087	0.00000	1659.37500
3.53469	0.00000	1659.37500
3.53851	0.00000	1659.37500
3.54233	0.00000	1666.66600
3.54615	0.00000	1666.66600
3.54997	0.00000	1666.66600
3.55380	0.00000	1666.66600
3.55763	0.00000	1666.66600
3.56145	0.00000	1666.66600
3.56527	0.00000	1666.66600
3.56909	0.00000	1661.93100
3.57291	0.00000	1661.93100
3.57673	0.00000	1661.93100
3.58056	0.00000	1666.66600
3.58438	0.00000	1666.66600
3.58820	0.00000	1666.66600
3.59204	0.00000	1666.66600
3.59586	0.00000	1671.40100
3.59968	0.00000	1671.40100
3.60350	0.00000	1671.40100
3.60732	0.00000	1678.89000
3.61114	0.00000	1678.89000
3.61496	0.00000	1678.89000
3.61879	0.00000	1678.89000
3.62260	0.00000	1671.40100
3.62643	0.00000	1671.40100
3.63025	0.00000	1671.40100
3.63407	0.00000	1657.19600
3.63790	0.00000	1657.19600
3.64172	0.00000	1657.19600
3.64555	0.00000	1661.93100
3.64937	0.00000	1661.93100
3.65319	0.00000	1661.93100
3.65702	0.00000	1661.93100
3.66084	0.00000	1666.66600
3.66466	0.00000	1666.66600
3.66849	0.00000	1666.66600
3.67231	0.00000	1657.19600
3.67614	0.00000	1657.19600
3.67997	0.00000	1657.19600
3.68379	0.00000	1657.19600
3.68761	0.00000	1671.40100
3.69143	0.00000	1671.40100
3.69525	0.00000	1671.40100
3.69908	0.00000	1678.89000
3.70291	0.00000	1678.89000
3.70673	0.00000	1678.89000
3.71056	0.00000	1678.89000
3.71438	0.00000	1666.66600
3.71820	0.00000	1666.66600
3.72203	0.00000	1666.66600
3.72582	0.00000	1661.93100
3.72965	0.00000	1661.93100
3.73347	0.00000	1661.93100
3.73729	0.00000	1661.93100
3.74111	0.00000	1661.93100
3.74494	0.00000	1661.93100
3.74877	0.00000	1661.93100
3.75262	0.00000	1671.40100
3.75646	0.00000	1671.40100
3.76030	0.00000	1671.40100
3.76413	0.00000	1666.66600
3.76795	0.00000	1666.66600
3.77178	0.00000	1666.66600
3.77560	0.00000	1666.66600
3.77942	0.00000	1654.68700
3.78324	0.00000	1654.68700
3.78707	0.00000	1654.68700
3.79089	0.00000	1678.89000
3.79471	0.00000	1678.89000
3.79853	0.00000	1678.89000
3.80235	0.00000	1678.89000
3.80617	0.00000	1678.89000
3.80999	0.00000	1678.89000
3.81381	0.00000	1678.89000
3.81765	0.00000	1666.66600
3.82147	0.00000	1666.66600
3.82530	0.00000	1666.66600
3.82912	0.00000	1666.66600
3.83294	0.00000	1666.66600
3.83677	0.00000	1666.66600
3.84060	0.00000	1666.66600
3.84442	0.00000	1676.13600
3.84824	0.00000	1676.13600
3.85208	0.00000	1676.13600
3.85590	0.00000	1674.10700
3.85973	0.00000	1674.10700
3.86355	0.00000	1674.10700
3.86736	0.00000	1674.10700
3.87120	0.00000	1654.68700
3.87502	0.00000	1654.68700
3.87884	0.00000	1654.68700
3.88267	0.00000	1666.66600
3.88649	0.00000	1666.66600
3.89031	0.00000	1666.66600
3.89413	0.00000	1678.89000
3.89795	0.00000	1678.89000
3.90178	0.00000	1678.89000
3.90561	0.00000	1678.89000
3.90944	0.00000	1666.66600
3.91326	0.00000	1666.66600
3.91709	0.00000	1666.66600
3.92091	0.00000	1661.93100
3.92474	0.00000	1661.93100
3.92856	0.00000	1661.93100
3.93238	0.00000	1661.93100
3.93621	0.00000	1680.87100
3.94003	0.00000	1680.87100
3.94385	0.00000	1680.87100
3.94768	0.00000	1683.67300
3.95150	0.00000	1683.67300
3.95533	0.00000	1683.67300
3.95915	0.00000	1683.67300
3.96297	0.00000	1678.89000
3.96679	0.00000	1678.89000
3.97061	0.00000	1678.89000
3.97443	0.00000	1666.66600
3.97826	0.00000	1666.66600
3.98208	0.00000	1666.66600
3.98591	0.00000	1666.66600
3.98974	0.00000	1666.66600
3.99356	0.00000	1666.66600
3.99739	0.00000	1666.66600
4.00121	0.00000	1676.13600
4.00503	0.00000	1676.13600
4.00885	0.00000	1676.13600
4.01268	0.00000	1666.66600
4.01650	0.00000	1666.66600
4.02033	0.00000	1666.66600
4.02415	0.00000	1666.66600
4.02797	0.00000	1659.37500
4.03179	0.00000	1659.37500
4.03561	0.00000	1659.37500
4.03943	0.00000	1661.93100
4.04326	0.00000	1661.93100
4.04708	0.00000	1661.93100
4.05090	0.00000	1666.66600
4.05472	0.00000	1666.66600
4.05855	0.00000	1666.66600
4.06237	0.00000	1666.66600
4.06618	0.00000	1666.66600
4.07000	0.00000	1666.66600
4.07382	0.00000	1666.66600
4.07764	0.00000	1661.93100
4.08146	0.00000	1661.93100
4.08528	0.00000	1661.93100
4.08910	0.00000	1661.93100
4.09293	0.00000	1671.40100
4.09675	0.00000	1671.40100
4.10057	0.00000	1671.40100
4.10440	0.00000	1678.89000
4.10822	0.00000	1678.89000
4.11204	0.00000	1678.89000
4.11587	0.00000	1678.89000
4.11969	0.00000	1671.40100
4.12352	0.00000	1671.40100
4.12734	0.00000	1671.40100
4.13116	0.00000	1661.93100
4.13498	0.00000	1661.93100
4.13881	0.00000	1661.93100
4.14263	0.00000	1661.93100
4.14646	0.00000	1661.93100
4.15028	0.00000	1661.93100
4.15413	0.00000	1661.93100
4.15797	0.00000	1666.66600
4.16180	0.00000	1666.66600
4.16565	0.00000	1666.66600
4.16947	0.00000	1661.93100
4.17329	0.00000	1661.93100
4.17712	0.00000	1661.93100
4.18095	0.00000	1661.93100
4.18477	0.00000	1671.40100
4.18859	0.00000	1671.40100
4.19241	0.00000	1671.40100
4.19624	0.00000	1678.89000
4.20006	0.00000	1678.89000
4.20389	0.00000	1678.89000
4.20772	0.00000	1678.89000
4.21155	0.00000	1678.89000
4.21537	0.00000	1678.89000
4.21920	0.00000	1678.89000
4.22302	0.00000	1666.66600
4.22685	0.00000	1666.66600
4.23067	0.00000	1666.66600
4.23450	0.00000	1661.93100
4.23832	0.00000	1661.93100
4.24214	0.00000	1661.93100
4.24597	0.00000	1661.93100
4.24979	0.00000	1671.40100
4.25362	0.00000	1671.40100
4.25744	0.00000	1671.40100
4.26126	0.00000	1661.93100
4.26508	0.00000	1661.93100
4.26891	0.00000	1661.93100
4.27274	0.00000	1661.93100
4.27657	0.00000	1676.13600
4.28039	0.00000	1676.13600
4.28421	0.00000	1676.13600
4.28803	0.00000	1678.89000
4.29185	0.00000	1678.89000
4.29568	0.00000	1678.89000
4.29950	0.00000	1678.89000
4.30332	0.00000	1678.89000
4.30716	0.00000	1678.89000
4.31095	0.00000	1678.89000
4.31478	0.00000	1666.66600
4.31861	0.00000	1666.66600
4.32243	0.00000	1666.66600
4.32625	0.00000	1661.93100
4.33007	0.00000	1661.93100
4.33389	0.00000	1661.93100
4.33772	0.00000	1661.93100
4.34154	0.00000	1676.13600
4.34536	0.00000	1676.13600
4.34919	0.00000	1676.13600
4.35300	0.00000	1678.89000
4.35683	0.00000	1678.89000
4.36065	0.00000	1678.89000
4.36448	0.00000	1678.89000
4.36830	0.00000	1666.66600
4.37212	0.00000	1666.66600
4.37595	0.00000	1666.66600
4.37977	0.00000	1661.93100
4.38360	0.00000	1661.93100
4.38742	0.00000	1661.93100
4.39124	0.00000	1678.89000
4.39507	0.00000	1678.89000
4.39889	0.00000	1678.89000
4.40271	0.00000	1678.89000
4.40654	0.00000	1676.13600
4.41036	0.00000	1676.13600
4.41417	0.00000	1676.13600
4.41799	0.00000	1666.66600
4.42182	0.00000	1666.66600
4.42565	0.00000	1666.66600
4.42946	0.00000	1666.66600
4.43328	0.00000	1676.13600
4.43711	0.00000	1676.13600
4.44093	0.00000	1676.13600
4.44475	0.00000	1683.67300
4.44857	0.00000	1683.67300
4.45241	0.00000	1683.67300
4.45623	0.00000	1678.89000
4.46005	0.00000	1678.89000
4.46388	0.00000	1678.89000
4.46770	0.00000	1678.89000
4.47152	0.00000	1661.93100
4.47534	0.00000	1661.93100
4.47917	0.00000	1661.93100
4.48299	0.00000	1666.66600
4.48681	0.00000	1666.66600
4.49064	0.00000	1666.66600
4.49446	0.00000	1666.66600
4.49828	0.00000	1676.13600
4.50210	0.00000	1676.13600
4.50593	0.00000	1676.13600
4.50975	0.00000	1683.67300
4.51357	0.00000	1683.67300
4.51739	0.00000	1683.67300
4.52122	0.00000	1683.67300
4.52504	0.00000	1676.13600
4.52886	0.00000	1676.13600
4.53268	0.00000	1676.13600
4.53650	0.00000	1661.93100
4.54033	0.00000	1661.93100
4.54414	0.00000	1661.93100
4.54796	0.00000	1661.93100
4.55180	0.00000	1661.93100
4.55562	0.00000	1661.93100
4.55946	0.00000	1661.93100
4.56329	0.00000	1666.66600
4.56713	0.00000	1666.66600
4.57095	0.00000	1666.66600
4.57478	0.00000	1661.93100
4.57861	0.00000	1661.93100
4.58247	0.00000	1661.93100
4.58630	0.00000	1661.93100
4.59013	0.00000	1671.40100
4.59395	0.00000	1671.40100
4.59778	0.00000	1671.40100
4.60162	0.00000	1678.89000
4.60545	0.00000	1678.89000
4.60928	0.00000	1678.89000
4.61310	0.00000	1678.89000
4.61692	0.00000	1678.89000
4.62075	0.00000	1678.89000
4.62457	0.00000	1678.89000
4.62840	0.00000	1666.66600
4.63224	0.00000	1666.66600
4.63607	0.00000	1666.66600
4.63989	0.00000	1661.93100
4.64371	0.00000	1661.93100
4.64753	0.00000	1661.93100
4.65135	0.00000	1661.93100
4.65517	0.00000	1671.40100
4.65900	0.00000	1671.40100
4.66282	0.00000	1671.40100
4.66665	0.00000	1661.93100
4.67047	0.00000	1661.93100
4.67430	0.00000	1661.93100
4.67812	0.00000	1661.93100
4.68195	0.00000	1671.40100
4.68577	0.00000	1671.40100
4.68960	0.00000	1671.40100
4.69342	0.00000	1683.67300
4.69725	0.00000	1683.67300
4.70107	0.00000	1683.67300
4.70489	0.00000	1683.67300
4.70872	0.00000	1683.67300
4.71255	0.00000	1683.67300
4.71637	0.00000	1683.67300
4.72020	0.00000	1666.66600
4.72402	0.00000	1666.66600
4.72784	0.00000	1666.66600
4.73166	0.00000	1661.93100
4.73550	0.00000	1661.93100
4.73932	0.00000	1661.93100
4.74314	0.00000	1661.93100
4.74697	0.00000	1676.13600
4.75080	0.00000	1676.13600
4.75462	0.00000	1676.13600
4.75845	0.00000	1683.67300
4.76228	0.00000	1683.67300
4.76610	0.00000	1683.67300
4.76993	0.00000	1683.67300
4.77375	0.00000	1676.13600
4.77757	0.00000	1676.13600
4.78140	0.00000	1676.13600
4.78522	0.00000	1661.93100
4.78905	0.00000	1661.93100
4.79287	0.00000	1661.93100
4.79669	0.00000	1661.93100
4.80051	0.00000	1661.93100
4.80433	0.00000	1661.93100
4.80816	0.00000	1661.93100
4.81198	0.00000	1676.13600
4.81581	0.00000	1676.13600
4.81963	0.00000	1676.13600
4.82346	0.00000	1661.93100
4.82729	0.00000	1661.93100
4.83111	0.00000	1661.93100
4.83494	0.00000	1661.93100
4.83876	0.00000	1659.37500
4.84258	0.00000	1659.37500
4.84641	0.00000	1659.37500
4.85023	0.00000	1661.93100
4.85405	0.00000	1661.93100
4.85787	0.00000	1661.93100
4.86169	0.00000	1678.89000
4.86551	0.00000	1678.89000
4.86934	0.00000	1678.89000
4.87315	0.00000	1678.89000
4.87697	0.00000	1666.66600
4.88079	0.00000	1666.66600
4.88462	0.00000	1666.66600
4.88845	0.00000	1661.93100
4.89227	0.00000	1661.93100
4.89610	0.00000	1661.93100
4.89992	0.00000	1661.93100
4.90374	0.00000	1671.40100
4.90757	0.00000	1671.40100
4.91139	0.00000	1671.40100
4.91522	0.00000	1678.89000
4.91904	0.00000	1678.89000
4.92286	0.00000	1678.89000
4.92669	0.00000	1678.89000
4.93052	0.00000	1683.67300
4.93434	0.00000	1683.67300
4.93817	0.00000	1683.67300
4.94199	0.00000	1661.93100
4.94582	0.00000	1661.93100
4.94964	0.00000	1661.93100
4.95346	0.00000	1678.89000
4.95728	0.00000	1678.89000
4.96110	0.00000	1678.89000
4.96492	0.00000	1678.89000
4.96875	0.00000	1671.40100
4.97257	0.00000	1671.40100
4.97640	0.00000	1671.40100
4.98021	0.00000	1661.93100
4.98404	0.00000	1661.93100
4.98786	0.00000	1661.93100
4.99169	0.00000	1661.93100
4.99551	0.00000	1676.13600
4.99933	0.00000	1676.13600
5.00371	0.00000	1676.13600
5.00757	0.00000	1678.89000
5.01141	0.00000	1678.89000
5.01524	0.00000	1678.89000
5.01908	0.00000	1723.48400
5.02293	0.00000	1723.48400
5.02677	0.00000	1723.48400
5.03059	0.00000	1723.48400
5.03447	0.00000	1920.50900
5.03833	0.00000	1920.50900
5.04218	0.00000	1920.50900
5.04601	0.00000	2107.14300
5.04982	0.00000	2107.14300
5.05365	0.00000	2107.14300
5.05747	0.00000	2107.14300
5.06130	0.00000	2260.51400
5.06514	0.00000	2260.51400
5.06897	0.00000	2260.51400
5.07282	0.00000	2260.51400
5.07665	0.00000	2386.36300
5.08048	0.00000	2386.36300
5.08431	0.00000	2386.36300
5.08815	0.00000	2386.36300
5.09198	0.00000	2506.97500
5.09581	0.00000	2506.97500
5.09965	0.00000	2506.97500
5.10347	0.00000	2506.97500
5.10732	0.00000	2615.13100
5.11115	0.00000	2615.13100
5.11498	0.00000	2615.13100
5.11880	0.00000	2615.13100
5.12263	0.00000	2711.47600
5.12646	0.00000	2711.47600
5.13030	0.00000	2711.47600
5.13413	0.00000	2711.47600
5.13796	0.00000	2820.51300
5.14179	0.00000	2820.51300
5.14563	0.00000	2820.51300
5.14946	0.00000	2820.51300
5.15329	0.00000	2923.72800
5.15711	0.00000	2923.72800
5.16094	0.00000	2923.72800
5.16477	0.00000	2923.72800
5.16862	0.00000	2984.37500
5.17246	0.00000	2984.37500
5.17629	0.00000	2984.37500
5.18011	0.00000	2984.37500
5.18395	0.00000	3043.03200
5.18777	0.00000	3043.03200
5.19160	0.00000	3043.03200
5.19543	0.00000	3043.03200
5.19926	0.00000	3105.94500
5.20310	0.00000	3105.94500
5.20693	0.00000	3105.94500
5.21076	0.00000	3105.94500
5.21459	0.00000	3105.94500
5.21842	0.00000	3150.00000
5.22225	0.00000	3150.00000
5.22607	0.00000	3150.00000
5.22990	0.00000	3150.00000
5.23372	0.00000	3213.75000
5.23755	0.00000	3213.75000
5.24138	0.00000	3213.75000
5.24522	0.00000	3213.75000
5.24905	0.00000	3251.48800
5.25288	0.00000	3251.48800
5.25670	0.00000	3251.48800
5.26053	0.00000	3251.48800
5.26436	0.00000	3251.48800
5.26819	0.00000	3299.70400
5.27203	0.00000	3299.70400
5.27586	0.00000	3299.70400
5.27968	0.00000	3299.70400
5.28352	0.00000	3340.30500
5.28735	0.00000	3340.30500
5.29118	0.00000	3340.30500
5.29501	0.00000	3340.30500
5.29883	0.00000	3361.81600
5.30266	0.00000	3361.81600
5.30649	0.00000	3361.81600
5.31033	0.00000	3361.81600
5.31416	0.00000	3361.81600
5.31798	0.00000	3397.52900
5.32182	0.00000	3397.52900
5.32565	0.00000	3397.52900
5.32948	0.00000	3397.52900
5.33330	0.00000	3382.21100
5.33713	0.00000	3382.21100
5.34096	0.00000	3382.21100
5.34479	0.00000	3382.21100
5.34861	0.00000	3382.21100
5.35245	0.00000	3447.11500
5.35627	0.00000	3447.11500
5.36011	0.00000	3447.11500
5.36393	0.00000	3447.11500
5.36777	0.00000	3447.11500
5.37159	0.00000	3447.11500
5.37542	0.00000	3447.11500
5.37925	0.00000	3447.11500
5.38308	0.00000	3447.11500
5.38691	0.00000	3474.47500
5.39073	0.00000	3474.47500
5.39456	0.00000	3474.47500
5.39839	0.00000	3474.47500
5.40222	0.00000	3470.89700
5.40607	0.00000	3470.89700
5.40990	0.00000	3470.89700
5.41373	0.00000	3470.89700
5.41755	0.00000	3470.89700
5.42139	0.00000	3490.76600
5.42522	0.00000	3490.76600
5.42905	0.00000	3490.76600
5.43288	0.00000	3490.76600
5.43671	0.00000	3487.21500
5.44054	0.00000	3487.21500
5.44437	0.00000	3487.21500
5.44823	0.00000	3487.21500
5.45208	0.00000	3487.21500
5.45591	0.00000	3522.72700
5.45975	0.00000	3522.72700
5.46357	0.00000	3522.72700
5.46739	0.00000	3522.72700
5.47122	0.00000	3512.07300
5.47505	0.00000	3512.07300
5.47888	0.00000	3512.07300
5.48271	0.00000	3512.07300
5.48655	0.00000	3512.07300
5.49038	0.00000	3547.58500
5.49421	0.00000	3547.58500
5.49804	0.00000	3547.58500
5.50189	0.00000	3547.58500
5.50572	0.00000	3536.93200
5.50955	0.00000	3536.93200
5.51338	0.00000	3536.93200
5.51722	0.00000	3536.93200
5.52105	0.00000	3536.93200
5.52488	0.00000	3545.58200
5.52872	0.00000	3545.58200
5.53255	0.00000	3545.58200
5.53640	0.00000	3545.58200
5.54023	0.00000	3551.13600
5.54406	0.00000	3551.13600
5.54790	0.00000	3551.13600
5.55173	0.00000	3551.13600
5.55556	0.00000	3551.13600
5.55941	0.00000	3563.20400
5.56324	0.00000	3563.20400
5.56707	0.00000	3563.20400
5.57091	0.00000	3563.20400
5.57474	0.00000	3565.34000
5.57857	0.00000	3565.34000
5.58240	0.00000	3565.34000
5.58623	0.00000	3565.34000
5.59006	0.00000	3565.34000
5.59389	0.00000	3559.68000
5.59773	0.00000	3559.68000
5.60156	0.00000	3559.68000
5.60540	0.00000	3559.68000
5.60924	0.00000	3559.68000
5.61306	0.00000	3559.68000
5.61691	0.00000	3559.68000
5.62075	0.00000	3559.68000
5.62458	0.00000	3559.68000
5.62842	0.00000	3566.72900
5.63225	0.00000	3566.72900
5.63609	0.00000	3566.72900
5.63992	0.00000	3566.72900
5.64375	0.00000	3566.72900
5.64759	0.00000	3568.09700
5.65142	0.00000	3568.09700
5.65524	0.00000	3568.09700
5.65908	0.00000	3568.09700
5.66290	0.00000	3570.25300
5.66674	0.00000	3570.25300
5.67057	0.00000	3570.25300
5.67441	0.00000	3570.25300
5.67824	0.00000	3570.25300
5.68207	0.00000	3601.97300
5.68591	0.00000	3601.97300
5.68975	0.00000	3601.97300
5.69359	0.00000	3601.97300
5.69743	0.00000	3584.35100
5.70128	0.00000	3584.35100
5.70511	0.00000	3584.35100
5.70895	0.00000	3584.35100
5.71278	0.00000	3584.35100
5.71662	0.00000	3582.08900
5.72045	0.00000	3582.08900
5.72428	0.00000	3582.08900
5.72812	0.00000	3582.08900
5.73196	0.00000	3584.35100
5.73579	0.00000	3584.35100
5.73962	0.00000	3584.35100
5.74345	0.00000	3584.35100
5.74729	0.00000	3584.35100
5.75113	0.00000	3598.44900
5.75496	0.00000	3598.44900
5.75879	0.00000	3598.44900
5.76263	0.00000	3598.44900
5.76646	0.00000	3598.44900
5.77030	0.00000	3569.44400
5.77413	0.00000	3569.44400
5.77796	0.00000	3569.44400
5.78180	0.00000	3569.44400
5.78565	0.00000	3601.97300
5.78947	0.00000	3601.97300
5.79331	0.00000	3601.97300
5.79714	0.00000	3601.97300
5.80098	0.00000	3601.97300
5.80481	0.00000	3589.08500
5.80865	0.00000	3589.08500
5.81248	0.00000	3589.08500
5.81632	0.00000	3589.08500
5.82015	0.00000	3605.49800
5.82399	0.00000	3605.49800
5.82783	0.00000	3605.49800
5.83166	0.00000	3605.49800
5.83549	0.00000	3605.49800
5.83932	0.00000	3582.08900
5.84315	0.00000	3582.08900
5.84697	0.00000	3582.08900
5.85081	0.00000	3582.08900
5.85463	0.00000	3582.08900
5.85846	0.00000	3589.08500
5.86230	0.00000	3589.08500
5.86612	0.00000	3589.08500
5.86995	0.00000	3589.08500
5.87378	0.00000	3594.92400
5.87763	0.00000	3594.92400
5.88145	0.00000	3594.92400
5.88529	0.00000	3594.92400
5.88913	0.00000	3594.92400
5.89295	0.00000	3572.91600
5.89679	0.00000	3572.91600
5.90063	0.00000	3572.91600
5.90447	0.00000	3572.91600
5.90830	0.00000	3609.02200
5.91214	0.00000	3609.02200
5.91597	0.00000	3609.02200
5.91980	0.00000	3609.02200
5.92364	0.00000	3609.02200
5.92746	0.00000	3606.57600
5.93129	0.00000	3606.57600
5.93514	0.00000	3606.57600
5.93898	0.00000	3606.57600
5.94280	0.00000	3575.09300
5.94663	0.00000	3575.09300
5.95046	0.00000	3575.09300
5.95429	0.00000	3575.09300
5.95813	0.00000	3575.09300
5.96196	0.00000	3612.54700
5.96580	0.00000	3612.54700
5.96964	0.00000	3612.54700
5.97347	0.00000	3612.54700
5.97731	0.00000	3612.54700
5.98115	0.00000	3603.07800
5.98497	0.00000	3603.07800
5.98881	0.00000	3603.07800
5.99266	0.00000	3603.07800
5.99648	0.00000	3578.59100
6.00031	0.00000	3578.59100
6.00415	0.00000	3578.59100
6.00799	0.00000	3578.59100
6.01182	0.00000	3578.59100
6.01566	0.00000	3610.07400
6.01950	0.00000	3610.07400
6.02335	0.00000	3610.07400
6.02720	0.00000	3610.07400
6.03105	0.00000	3612.54700
6.03490	0.00000	3612.54700
6.03876	0.00000	3612.54700
6.04259	0.00000	3612.54700
6.04643	0.00000	3612.54700
6.05026	0.00000	3599.58000
6.05410	0.00000	3599.58000
6.05794	0.00000	3599.58000
6.06177	0.00000	3599.58000
6.06561	0.00000	3599.58000
6.06944	0.00000	3592.58400
6.07329	0.00000	3592.58400
6.07712	0.00000	3592.58400
6.08095	0.00000	3592.58400
6.08480	0.00000	3605.49800
6.08863	0.00000	3605.49800
6.09247	0.00000	3605.49800
6.09632	0.00000	3605.49800
6.10016	0.00000	3605.49800
6.10399	0.00000	3606.57600
6.10781	0.00000	3606.57600
6.11165	0.00000	3606.57600
6.11548	0.00000	3606.57600
6.11932	0.00000	3578.59100
6.12316	0.00000	3578.59100
6.12698	0.00000	3578.59100
6.13081	0.00000	3578.59100
6.13464	0.00000	3578.59100
6.13848	0.00000	3606.57600
6.14230	0.00000	3606.57600
6.14613	0.00000	3606.57600
6.14995	0.00000	3606.57600
6.15379	0.00000	3605.49800
6.15763	0.00000	3605.49800
6.16147	0.00000	3605.49800
6.16529	0.00000	3605.49800
6.16914	0.00000	3605.49800
6.17297	0.00000	3599.58000
6.17680	0.00000	3599.58000
6.18064	0.00000	3599.58000
6.18448	0.00000	3599.58000
6.18831	0.00000	3599.58000
6.19215	0.00000	3606.57600
6.19599	0.00000	3606.57600
6.19983	0.00000	3606.57600
6.20366	0.00000	3606.57600
6.20750	0.00000	3601.97300
6.21133	0.00000	3601.97300
6.21516	0.00000	3601.97300
6.21900	0.00000	3601.97300
6.22284	0.00000	3601.97300
6.22668	0.00000	3599.58000
6.23052	0.00000	3599.58000
6.23435	0.00000	3599.58000
6.23819	0.00000	3599.58000
6.24203	0.00000	3585.58700
6.24587	0.00000	3585.58700
6.24970	0.00000	3585.58700
6.25354	0.00000	3585.58700
6.25738	0.00000	3585.58700
6.26121	0.00000	3603.07800
6.26505	0.00000	3603.07800
6.26888	0.00000	3603.07800
6.27271	0.00000	3603.07800
6.27655	0.00000	3603.07800
6.28038	0.00000	3592.58400
6.28422	0.00000	3592.58400
6.28806	0.00000	3592.58400
6.29189	0.00000	3592.58400
6.29574	0.00000	3585.58700
6.29956	0.00000	3585.58700
6.30340	0.00000	3585.58700
6.30724	0.00000	3585.58700
6.31108	0.00000	3585.58700
6.31492	0.00000	3599.58000
6.31875	0.00000	3599.58000
6.32259	0.00000	3599.58000
6.32643	0.00000	3599.58000
6.33025	0.00000	3616.07100
6.33408	0.00000	3616.07100
6.33792	0.00000	3616.07100
6.34175	0.00000	3616.07100
6.34558	0.00000	3616.07100
6.34941	0.00000	3603.07800
6.35325	0.00000	3603.07800
6.35709	0.00000	3603.07800
6.36093	0.00000	3603.07800
6.36476	0.00000	3589.08500
6.36860	0.00000	3589.08500
6.37243	0.00000	3589.08500
6.37627	0.00000	3589.08500
6.38010	0.00000	3589.08500
6.38393	0.00000	3619.59600
6.38776	0.00000	3619.59600
6.39160	0.00000	3619.59600
6.39544	0.00000	3619.59600
6.39928	0.00000	3619.59600
6.40311	0.00000	3599.58000
6.40695	0.00000	3599.58000
6.41078	0.00000	3599.58000
6.41461	0.00000	3599.58000
6.41845	0.00000	3585.58700
6.42229	0.00000	3585.58700
6.42613	0.00000	3585.58700
6.42996	0.00000	3585.58700
6.43380	0.00000	3585.58700
6.43764	0.00000	3586.80500
6.44147	0.00000	3586.80500
6.44530	0.00000	3586.80500
6.44914	0.00000	3586.80500
6.45300	0.00000	3585.58700
6.45683	0.00000	3585.58700
6.46067	0.00000	3585.58700
6.46452	0.00000	3585.58700
6.46836	0.00000	3585.58700
6.47220	0.00000	3610.07400
6.47604	0.00000	3610.07400
6.47988	0.00000	3610.07400
6.48371	0.00000	3610.07400
6.48755	0.00000	3612.54700
6.49137	0.00000	3612.54700
6.49521	0.00000	3612.54700
6.49904	0.00000	3612.54700
6.50288	0.00000	3612.54700
6.50672	0.00000	3585.58700
6.51054	0.00000	3585.58700
6.51437	0.00000	3585.58700
6.51821	0.00000	3585.58700
6.52205	0.00000	3585.58700
6.52589	0.00000	3610.07400
6.52971	0.00000	3610.07400
6.53354	0.00000	3610.07400
6.53739	0.00000	3610.07400
6.54122	0.00000	3612.54700
6.54507	0.00000	3612.54700
6.54890	0.00000	3612.54700
6.55274	0.00000	3612.54700
6.55658	0.00000	3612.54700
6.56042	0.00000	3596.08200
6.56426	0.00000	3596.08200
6.56809	0.00000	3596.08200
6.57193	0.00000	3596.08200
6.57577	0.00000	3585.58700
6.57959	0.00000	3585.58700
6.58343	0.00000	3585.58700
6.58727	0.00000	3585.58700
6.59110	0.00000	3585.58700
6.59495	0.00000	3603.07800
6.59877	0.00000	3603.07800
6.60260	0.00000	3603.07800
6.60644	0.00000	3603.07800
6.61026	0.00000	3603.07800
6.61408	0.00000	3603.07800
6.61792	0.00000	3603.07800
6.62176	0.00000	3603.07800
6.62560	0.00000	3603.07800
6.62943	0.00000	3575.09300
6.63327	0.00000	3575.09300
6.63710	0.00000	3575.09300
6.64094	0.00000	3575.09300
6.64476	0.00000	3575.09300
6.64859	0.00000	3576.38900
6.65242	0.00000	3576.38900
6.65624	0.00000	3576.38900
6.66007	0.00000	3576.38900
6.66390	0.00000	3609.02200
6.66774	0.00000	3609.02200
6.67157	0.00000	3609.02200
6.67539	0.00000	3609.02200
6.67922	0.00000	3609.02200
6.68304	0.00000	3603.07800
6.68687	0.00000	3603.07800
6.69071	0.00000	3603.07800
6.69454	0.00000	3603.07800
6.69837	0.00000	3603.07800
6.70218	0.00000	3589.08500
6.70600	0.00000	3589.08500
6.70982	0.00000	3589.08500
6.71363	0.00000	3589.08500
6.71746	0.00000	3601.97300
6.72129	0.00000	3601.97300
6.72511	0.00000	3601.97300
6.72894	0.00000	3601.97300
6.73277	0.00000	3601.97300
6.73659	0.00000	3599.58000
6.74042	0.00000	3599.58000
6.74425	0.00000	3599.58000
6.74807	0.00000	3599.58000
6.75188	0.00000	3582.08900
6.75571	0.00000	3582.08900
6.75953	0.00000	3582.08900
6.76336	0.00000	3582.08900
6.76719	0.00000	3582.08900
6.77102	0.00000	3606.57600
6.77484	0.00000	3606.57600
6.77867	0.00000	3606.57600
6.78250	0.00000	3606.57600
6.78633	0.00000	3605.49800
6.79014	0.00000	3605.49800
6.79398	0.00000	3605.49800
6.79781	0.00000	3605.49800
6.80164	0.00000	3605.49800
6.80547	0.00000	3605.49800
6.80932	0.00000	3605.49800
6.81316	0.00000	3605.49800
6.81700	0.00000	3605.49800
6.82083	0.00000	3605.49800
6.82467	0.00000	3599.58000
6.82850	0.00000	3599.58000
6.83233	0.00000	3599.58000
6.83617	0.00000	3599.58000
6.84001	0.00000	3582.08900
6.84385	0.00000	3582.08900
6.84770	0.00000	3582.08900
6.85154	0.00000	3582.08900
6.85537	0.00000	3582.08900
6.85921	0.00000	3576.38900
6.86305	0.00000	3576.38900
6.86688	0.00000	3576.38900
6.87071	0.00000	3576.38900
6.87455	0.00000	3612.54700
6.87839	0.00000	3612.54700
6.88222	0.00000	3612.54700
6.88605	0.00000	3612.54700
6.88987	0.00000	3612.54700
6.89370	0.00000	3592.58400
6.89754	0.00000	3592.58400
6.90137	0.00000	3592.58400
6.90521	0.00000	3592.58400
6.90905	0.00000	3592.58400
6.91288	0.00000	3599.58000
6.91671	0.00000	3599.58000
6.92055	0.00000	3599.58000
6.92439	0.00000	3599.58000
6.92824	0.00000	3612.54700
6.93207	0.00000	3612.54700
6.93591	0.00000	3612.54700
6.93976	0.00000	3612.54700
6.94359	0.00000	3612.54700
6.94743	0.00000	3606.57600
6.95126	0.00000	3606.57600
6.95511	0.00000	3606.57600
6.95894	0.00000	3606.57600
6.96279	0.00000	3575.09300
6.96663	0.00000	3575.09300
6.97046	0.00000	3575.09300
6.97430	0.00000	3575.09300
6.97814	0.00000	3575.09300
6.98197	0.00000	3583.33300
6.98580	0.00000	3583.33300
6.98964	0.00000	3583.33300
6.99348	0.00000	3583.33300
6.99731	0.00000	3605.49800
7.00113	0.00000	3605.49800
7.00496	0.00000	3605.49800
7.00878	0.00000	3605.49800
7.01261	0.00000	3605.49800
7.01643	0.00000	3578.59100
7.02026	0.00000	3578.59100
7.02410	0.00000	3578.59100
7.02794	0.00000	3578.59100
7.03177	0.00000	3578.59100
7.03562	0.00000	3606.57600
7.03946	0.00000	3606.57600
7.04330	0.00000	3606.57600
7.04713	0.00000	3606.57600
7.05095	0.00000	3594.92400
7.05478	0.00000	3594.92400
7.05862	0.00000	3594.92400
7.06244	0.00000	3594.92400
7.06627	0.00000	3594.92400
7.07010	0.00000	3579.86100
7.07394	0.00000	3579.86100
7.07776	0.00000	3579.86100
7.08161	0.00000	3579.86100
7.08544	0.00000	3582.08900
7.08929	0.00000	3582.08900
7.09313	0.00000	3582.08900
7.09697	0.00000	3582.08900
7.10080	0.00000	3582.08900
7.10465	0.00000	3606.57600
7.10848	0.00000	3606.57600
7.11231	0.00000	3606.57600
7.11616	0.00000	3606.57600
7.12000	0.00000	3606.57600
7.12382	0.00000	3592.58400
7.12767	0.00000	3592.58400
7.13151	0.00000	3592.58400
7.13535	0.00000	3592.58400
7.13920	0.00000	3601.97300
7.14304	0.00000	3601.97300
7.14686	0.00000	3601.97300
7.15069	0.00000	3601.97300
7.15453	0.00000	3601.97300
7.15838	0.00000	3603.07800
7.16222	0.00000	3603.07800
7.16606	0.00000	3603.07800
7.16989	0.00000	3603.07800
7.17373	0.00000	3609.02200
7.17757	0.00000	3609.02200
7.18140	0.00000	3609.02200
7.18523	0.00000	3609.02200
7.18908	0.00000	3609.02200
7.19291	0.00000	3579.86100
7.19675	0.00000	3579.86100
7.20059	0.00000	3579.86100
7.20444	0.00000	3579.86100
7.20828	0.00000	3601.97300
7.21211	0.00000	3601.97300
7.21595	0.00000	3601.97300
7.21978	0.00000	3601.97300
7.22363	0.00000	3601.97300
7.22747	0.00000	3582.08900
7.23129	0.00000	3582.08900
7.23513	0.00000	3582.08900
7.23897	0.00000	3582.08900
7.24281	0.00000	3582.08900
7.24664	0.00000	3596.08200
7.25048	0.00000	3596.08200
7.25431	0.00000	3596.08200
7.25814	0.00000	3596.08200
7.26198	0.00000	3594.92400
7.26581	0.00000	3594.92400
7.26966	0.00000	3594.92400
7.27350	0.00000	3594.92400
7.27732	0.00000	3594.92400
7.28117	0.00000	3576.38900
7.28500	0.00000	3576.38900
7.28883	0.00000	3576.38900
7.29266	0.00000	3576.38900
7.29649	0.00000	3598.44900
7.30033	0.00000	3598.44900
7.30416	0.00000	3598.44900
7.30799	0.00000	3598.44900
7.31183	0.00000	3598.44900
7.31567	0.00000	3599.58000
7.31951	0.00000	3599.58000
7.32335	0.00000	3599.58000
7.32718	0.00000	3599.58000
7.33101	0.00000	3582.08900
7.33484	0.00000	3582.08900
7.33868	0.00000	3582.08900
7.34252	0.00000	3582.08900
7.34635	0.00000	3582.08900
7.35018	0.00000	3609.02200
7.35403	0.00000	3609.02200
7.35787	0.00000	3609.02200
7.36171	0.00000	3609.02200
7.36554	0.00000	3609.02200
7.36937	0.00000	3572.91600
7.37320	0.00000	3572.91600
7.37704	0.00000	3572.91600
7.38087	0.00000	3572.91600
7.38472	0.00000	3601.97300
7.38854	0.00000	3601.97300
7.39237	0.00000	3601.97300
7.39620	0.00000	3601.97300
7.40004	0.00000	3601.97300
7.40387	0.00000	3603.07800
7.40770	0.00000	3603.07800
7.41153	0.00000	3603.07800
7.41537	0.00000	3603.07800
7.41920	0.00000	3609.02200
7.42305	0.00000	3609.02200
7.42688	0.00000	3609.02200
7.43072	0.00000	3609.02200
7.43456	0.00000	3609.02200
7.43841	0.00000	3572.91600
7.44225	0.00000	3572.91600
7.44608	0.00000	3572.91600
7.44992	0.00000	3572.91600
7.45376	0.00000	3572.91600
7.45759	0.00000	3575.09300
7.46142	0.00000	3575.09300
7.46526	0.00000	3575.09300
7.46909	0.00000	3575.09300
7.47292	0.00000	3578.59100
7.47676	0.00000	3578.59100
7.48059	0.00000	3578.59100
7.48443	0.00000	3578.59100
7.48827	0.00000	3578.59100
7.49209	0.00000	3582.08900
7.49594	0.00000	3582.08900
7.49977	0.00000	3582.08900
7.50360	0.00000	3582.08900
7.50743	0.00000	3578.59100
7.51127	0.00000	3578.59100
7.51510	0.00000	3578.59100
7.51893	0.00000	3578.59100
7.52276	0.00000	3578.59100
7.52661	0.00000	3599.58000
7.53044	0.00000	3599.58000
7.53428	0.00000	3599.58000
7.53811	0.00000	3599.58000
7.54194	0.00000	3598.44900
7.54577	0.00000	3598.44900
7.54960	0.00000	3598.44900
7.55343	0.00000	3598.44900
7.55726	0.00000	3598.44900
7.56109	0.00000	3605.49800
7.56493	0.00000	3605.49800
7.56876	0.00000	3605.49800
7.57259	0.00000	3605.49800
7.57643	0.00000	3605.49800
7.58026	0.00000	3596.08200
7.58410	0.00000	3596.08200
7.58793	0.00000	3596.08200
7.59175	0.00000	3596.08200
7.59560	0.00000	3578.59100
7.59944	0.00000	3578.59100
7.60327	0.00000	3578.59100
7.60710	0.00000	3578.59100
7.61093	0.00000	3578.59100
7.61476	0.00000	3603.07800
7.61859	0.00000	3603.07800
7.62242	0.00000	3603.07800
7.62626	0.00000	3603.07800
7.63010	0.00000	3605.49800
7.63394	0.00000	3605.49800
7.63777	0.00000	3605.49800
7.64162	0.00000	3605.49800
7.64546	0.00000	3605.49800
7.64929	0.00000	3603.07800
7.65313	0.00000	3603.07800
7.65695	0.00000	3603.07800
7.66078	0.00000	3603.07800
7.66461	0.00000	3578.59100
7.66844	0.00000	3578.59100
7.67227	0.00000	3578.59100
7.67612	0.00000	3578.59100
7.67996	0.00000	3578.59100
7.68379	0.00000	3578.59100
7.68762	0.00000	3578.59100
7.69146	0.00000	3578.59100
7.69529	0.00000	3578.59100
7.69913	0.00000	3578.59100
7.70296	0.00000	3569.44400
7.70679	0.00000	3569.44400
7.71063	0.00000	3569.44400
7.71446	0.00000	3569.44400
7.71829	0.00000	3605.49800
7.72212	0.00000	3605.49800
7.72597	0.00000	3605.49800
7.72979	0.00000	3605.49800
7.73362	0.00000	3605.49800
7.73746	0.00000	3589.08500
7.74129	0.00000	3589.08500
7.74512	0.00000	3589.08500
7.74896	0.00000	3589.08500
7.75279	0.00000	3601.97300
7.75663	0.00000	3601.97300
7.76047	0.00000	3601.97300
7.76429	0.00000	3601.97300
7.76813	0.00000	3601.97300
7.77196	0.00000	3592.58400
7.77579	0.00000	3592.58400
7.77962	0.00000	3592.58400
7.78345	0.00000	3592.58400
7.78728	0.00000	3592.58400
7.79110	0.00000	3596.08200
7.79494	0.00000	3596.08200
7.79877	0.00000	3596.08200
7.80260	0.00000	3596.08200
7.80643	0.00000	3598.44900
7.81027	0.00000	3598.44900
7.81410	0.00000	3598.44900
7.81793	0.00000	3598.44900
7.82176	0.00000	3598.44900
7.82561	0.00000	3599.58000
7.82945	0.00000	3599.58000
7.83328	0.00000	3599.58000
7.83712	0.00000	3599.58000
7.84096	0.00000	3598.44900
7.84480	0.00000	3598.44900
7.84863	0.00000	3598.44900
7.85246	0.00000	3598.44900
7.85630	0.00000	3598.44900
7.86013	0.00000	3603.07800
7.86398	0.00000	3603.07800
7.86781	0.00000	3603.07800
7.87164	0.00000	3603.07800
7.87548	0.00000	3601.97300
7.87931	0.00000	3601.97300
7.88315	0.00000	3601.97300
7.88699	0.00000	3601.97300
7.89082	0.00000	3601.97300
7.89465	0.00000	3601.97300
7.89849	0.00000	3601.97300
7.90232	0.00000	3601.97300
7.90616	0.00000	3601.97300
7.91000	0.00000	3601.97300
7.91382	0.00000	3603.07800
7.91766	0.00000	3603.07800
7.92149	0.00000	3603.07800
7.92532	0.00000	3603.07800
7.92914	0.00000	3571.59500
7.93297	0.00000	3571.59500
7.93680	0.00000	3571.59500
7.94063	0.00000	3571.59500
7.94447	0.00000	3571.59500
7.94830	0.00000	3603.07800
7.95214	0.00000	3603.07800
7.95597	0.00000	3603.07800
7.95979	0.00000	3603.07800
7.96362	0.00000	3598.44900
7.96746	0.00000	3598.44900
7.97130	0.00000	3598.44900
7.97513	0.00000	3598.44900
7.97897	0.00000	3598.44900
7.98280	0.00000	3596.08200
7.98663	0.00000	3596.08200
7.99047	0.00000	3596.08200
7.99431	0.00000	3596.08200
7.99814	0.00000	3596.08200
8.00196	0.00000	3596.08200
8.00580	0.00000	3596.08200
8.00964	0.00000	3596.08200
8.01349	0.00000	3596.08200
8.01731	0.00000	3571.59500
8.02114	0.00000	3571.59500
8.02498	0.00000	3571.59500
8.02882	0.00000	3571.59500
8.03265	0.00000	3571.59500
8.03648	0.00000	3596.08200
8.04031	0.00000	3596.08200
8.04414	0.00000	3596.08200
8.04799	0.00000	3596.08200
8.05181	0.00000	3598.44900
8.05565	0.00000	3598.44900
8.05948	0.00000	3598.44900
8.06330	0.00000	3598.44900
8.06714	0.00000	3598.44900
8.07095	0.00000	3596.08200
8.07478	0.00000	3596.08200
8.07863	0.00000	3596.08200
8.08246	0.00000	3596.08200
8.08628	0.00000	3598.44900
8.09011	0.00000	3598.44900
8.09395	0.00000	3598.44900
8.09779	0.00000	3598.44900
8.10162	0.00000	3598.44900
8.10545	0.00000	3601.97300
8.10928	0.00000	3601.97300
8.11311	0.00000	3601.97300
8.11694	0.00000	3601.97300
8.12077	0.00000	3601.97300
8.12461	0.00000	3596.08200
8.12845	0.00000	3596.08200
8.13228	0.00000	3596.08200
8.13612	0.00000	3596.08200
8.13995	0.00000	3571.59500
8.14377	0.00000	3571.59500
8.14760	0.00000	3571.59500
8.15144	0.00000	3571.59500
8.15530	0.00000	3571.59500
8.15915	0.00000	3596.08200
8.16300	0.00000	3596.08200
8.16684	0.00000	3596.08200
8.17068	0.00000	3596.08200
8.17451	0.00000	3601.97300
8.17835	0.00000	3601.97300
8.18219	0.00000	3601.97300
8.18601	0.00000	3601.97300
8.18982	0.00000	3601.97300
8.19366	0.00000	3572.91600
8.19751	0.00000	3572.91600
8.20134	0.00000	3572.91600
8.20518	0.00000	3572.91600
8.20901	0.00000	3598.44900
8.21283	0.00000	3598.44900
8.21667	0.00000	3598.44900
8.22049	0.00000	3598.44900
8.22433	0.00000	3598.44900
8.22818	0.00000	3598.44900
8.23202	0.00000	3598.44900
8.23586	0.00000	3598.44900
8.23970	0.00000	3598.44900
8.24353	0.00000	3598.44900
8.24737	0.00000	3596.08200
8.25120	0.00000	3596.08200
8.25503	0.00000	3596.08200
8.25887	0.00000	3596.08200
8.26269	0.00000	3578.59100
8.26652	0.00000	3578.59100
8.27035	0.00000	3578.59100
8.27419	0.00000	3578.59100
8.27803	0.00000	3578.59100
8.28182	0.00000	3599.58000
8.28565	0.00000	3599.58000
8.28948	0.00000	3599.58000
8.29333	0.00000	3599.58000
8.29716	0.00000	3601.97300
8.30099	0.00000	3601.97300
8.30482	0.00000	3601.97300
8.30865	0.00000	3601.97300
8.31250	0.00000	3601.97300
8.31632	0.00000	3592.58400
8.32016	0.00000	3592.58400
8.32399	0.00000	3592.58400
8.32782	0.00000	3592.58400
8.33165	0.00000	3592.58400
8.33547	0.00000	3592.58400
8.33931	0.00000	3592.58400
8.34314	0.00000	3592.58400
8.34699	0.00000	3592.58400
8.35082	0.00000	3601.97300
8.35465	0.00000	3601.97300
8.35850	0.00000	3601.97300
8.36233	0.00000	3601.97300
8.36616	0.00000	3601.97300
8.36999	0.00000	3569.44400
8.37382	0.00000	3569.44400
8.37765	0.00000	3569.44400
8.38148	0.00000	3569.44400
8.38531	0.00000	3601.97300
8.38914	0.00000	3601.97300
8.39297	0.00000	3601.97300
8.39681	0.00000	3601.97300
8.40065	0.00000	3601.97300
8.40448	0.00000	3599.58000
8.40831	0.00000	3599.58000
8.41214	0.00000	3599.58000
8.41598	0.00000	3599.58000
8.41981	0.00000	3578.59100
8.42364	0.00000	3578.59100
8.42748	0.00000	3578.59100
8.43132	0.00000	3578.59100
8.43515	0.00000	3578.59100
8.43898	0.00000	3578.59100
8.44282	0.00000	3578.59100
8.44666	0.00000	3578.59100
8.45049	0.00000	3578.59100
8.45432	0.00000	3578.59100
8.45816	0.00000	3572.91600
8.46200	0.00000	3572.91600
8.46582	0.00000	3572.91600
8.46965	0.00000	3572.91600
8.47348	0.00000	3594.92400
8.47731	0.00000	3594.92400
8.48115	0.00000	3594.92400
8.48499	0.00000	3594.92400
8.48881	0.00000	3594.92400
8.49265	0.00000	3572.91600
8.49649	0.00000	3572.91600
8.50032	0.00000	3572.91600
8.50415	0.00000	3572.91600
8.50799	0.00000	3575.09300
8.51183	0.00000	3575.09300
8.51566	0.00000	3575.09300
8.51951	0.00000	3575.09300
8.52334	0.00000	3575.09300
8.52719	0.00000	3596.08200
8.53103	0.00000	3596.08200
8.53486	0.00000	3596.08200
8.53870	0.00000	3596.08200
8.54253	0.00000	3596.08200
8.54636	0.00000	3589.08500
8.55018	0.00000	3589.08500
8.55401	0.00000	3589.08500
8.55782	0.00000	3589.08500
8.56165	0.00000	3598.44900
8.56548	0.00000	3598.44900
8.56930	0.00000	3598.44900
8.57314	0.00000	3598.44900
8.57698	0.00000	3598.44900
8.58084	0.00000	3599.58000
8.58470	0.00000	3599.58000
8.58854	0.00000	3599.58000
8.59238	0.00000	3599.58000
8.59622	0.00000	3594.92400
8.60007	0.00000	3594.92400
8.60390	0.00000	3594.92400
8.60774	0.00000	3594.92400
8.61158	0.00000	3594.92400
8.61541	0.00000	3603.07800
8.61924	0.00000	3603.07800
8.62307	0.00000	3603.07800
8.62691	0.00000	3603.07800
8.63074	0.00000	3568.09700
8.63457	0.00000	3568.09700
8.63840	0.00000	3568.09700
8.64223	0.00000	3568.09700
8.64606	0.00000	3568.09700
8.64991	0.00000	3582.08900
8.65374	0.00000	3582.08900
8.65757	0.00000	3582.08900
8.66140	0.00000	3582.08900
8.66523	0.00000	3582.08900
8.66906	0.00000	3569.44400
8.67289	0.00000	3569.44400
8.67673	0.00000	3569.44400
8.68056	0.00000	3569.44400
8.68438	0.00000	3594.92400
8.68822	0.00000	3594.92400
8.69205	0.00000	3594.92400
8.69589	0.00000	3594.92400
8.69973	0.00000	3594.92400
8.70358	0.00000	3596.08200
8.70742	0.00000	3596.08200
8.71127	0.00000	3596.08200
8.71510	0.00000	3596.08200
8.71894	0.00000	3575.09300
8.72278	0.00000	3575.09300
8.72661	0.00000	3575.09300
8.73044	0.00000	3575.09300
8.73427	0.00000	3575.09300
8.73810	0.00000	3589.08500
8.74193	0.00000	3589.08500
8.74576	0.00000	3589.08500
8.74961	0.00000	3589.08500
8.75343	0.00000	3575.09300
8.75726	0.00000	3575.09300
8.76110	0.00000	3575.09300
8.76493	0.00000	3575.09300
8.76876	0.00000	3575.09300
8.77259	0.00000	3601.97300
8.77642	0.00000	3601.97300
8.78027	0.00000	3601.97300
8.78411	0.00000	3601.97300
8.78796	0.00000	3601.97300
8.79179	0.00000	3562.50000
8.79562	0.00000	3562.50000
8.79947	0.00000	3562.50000
8.80331	0.00000	3562.50000
8.80715	0.00000	3601.97300
8.81095	0.00000	3601.97300
8.81479	0.00000	3601.97300
8.81862	0.00000	3601.97300
8.82245	0.00000	3601.97300
8.82629	0.00000	3589.08500
8.83013	0.00000	3589.08500
8.83396	0.00000	3589.08500
8.83779	0.00000	3589.08500
8.84162	0.00000	3598.44900
8.84547	0.00000	3598.44900
8.84931	0.00000	3598.44900
8.85316	0.00000	3598.44900
8.85699	0.00000	3598.44900
8.86082	0.00000	3596.08200
8.86467	0.00000	3596.08200
8.86851	0.00000	3596.08200
8.87233	0.00000	3596.08200
8.87616	0.00000	3596.08200
8.87999	0.00000	3575.09300
8.88382	0.00000	3575.09300
8.88765	0.00000	3575.09300
8.89149	0.00000	3575.09300
8.89533	0.00000	3594.92400
8.89918	0.00000	3594.92400
8.90301	0.00000	3594.92400
8.90684	0.00000	3594.92400
8.91067	0.00000	3594.92400
8.91450	0.00000	3596.08200
8.91833	0.00000	3596.08200
8.92216	0.00000	3596.08200
8.92599	0.00000	3596.08200
8.92982	0.00000	3601.97300
8.93365	0.00000	3601.97300
8.93748	0.00000	3601.97300
8.94132	0.00000	3601.97300
8.94515	0.00000	3601.97300
8.94898	0.00000	3576.38900
8.95282	0.00000	3576.38900
8.95666	0.00000	3576.38900
8.96049	0.00000	3576.38900
8.96432	0.00000	3575.09300
8.96815	0.00000	3575.09300
8.97199	0.00000	3575.09300
8.97583	0.00000	3575.09300
8.97966	0.00000	3575.09300
8.98349	0.00000	3582.08900
8.98732	0.00000	3582.08900
8.99116	0.00000	3582.08900
8.99499	0.00000	3582.08900
8.99881	0.00000	3582.08900
9.00264	0.00000	3589.08500
9.00648	0.00000	3589.08500
9.01032	0.00000	3589.08500
9.01416	0.00000	3589.08500
9.01799	0.00000	3598.44900
9.02182	0.00000	3598.44900
9.02566	0.00000	3598.44900
9.02949	0.00000	3598.44900
9.03331	0.00000	3598.44900
9.03716	0.00000	3572.91600
9.04100	0.00000	3572.91600
9.04483	0.00000	3572.91600
9.04866	0.00000	3572.91600
9.05249	0.00000	3587.87600
9.05633	0.00000	3587.87600
9.06016	0.00000	3587.87600
9.06401	0.00000	3587.87600
9.06785	0.00000	3587.87600
9.07169	0.00000	3565.97200
9.07552	0.00000	3565.97200
9.07935	0.00000	3565.97200
9.08318	0.00000	3565.97200
9.08701	0.00000	3591.40000
9.09083	0.00000	3591.40000
9.09468	0.00000	3591.40000
9.09851	0.00000	3591.40000
9.10234	0.00000	3591.40000
9.10618	0.00000	3578.59100
9.11001	0.00000	3578.59100
9.11382	0.00000	3578.59100
9.11765	0.00000	3578.59100
9.12148	0.00000	3578.59100
9.12532	0.00000	3592.58400
9.12915	0.00000	3592.58400
9.13298	0.00000	3592.58400
9.13681	0.00000	3592.58400
9.14064	0.00000	3571.59500
9.14446	0.00000	3571.59500
9.14829	0.00000	3571.59500
9.15211	0.00000	3571.59500
9.15595	0.00000	3571.59500
9.15979	0.00000	3599.58000
9.16362	0.00000	3599.58000
9.16746	0.00000	3599.58000
9.17130	0.00000	3599.58000
9.17515	0.00000	3601.97300
9.17898	0.00000	3601.97300
9.18281	0.00000	3601.97300
9.18664	0.00000	3601.97300
9.19047	0.00000	3601.97300
9.19431	0.00000	3592.58400
9.19815	0.00000	3592.58400
9.20198	0.00000	3592.58400
9.20582	0.00000	3592.58400
9.20965	0.00000	3592.58400
9.21348	0.00000	3585.58700
9.21731	0.00000	3585.58700
9.22114	0.00000	3585.58700
9.22497	0.00000	3585.58700
9.22881	0.00000	3571.59500
9.23265	0.00000	3571.59500
9.23648	0.00000	3571.59500
9.24032	0.00000	3571.59500
9.24415	0.00000	3571.59500
9.24798	0.00000	3596.08200
9.25181	0.00000	3596.08200
9.25564	0.00000	3596.08200
9.25947	0.00000	3596.08200
9.26331	0.00000	3601.97300
9.26715	0.00000	3601.97300
9.27095	0.00000	3601.97300
9.27478	0.00000	3601.97300
9.27861	0.00000	3601.97300
9.28244	0.00000	3565.97200
9.28627	0.00000	3565.97200
9.29010	0.00000	3565.97200
9.29394	0.00000	3565.97200
9.29777	0.00000	3601.97300
9.30161	0.00000	3601.97300
9.30544	0.00000	3601.97300
9.30928	0.00000	3601.97300
9.31311	0.00000	3601.97300
9.31696	0.00000	3582.08900
9.32079	0.00000	3582.08900
9.32462	0.00000	3582.08900
9.32845	0.00000	3582.08900
9.33229	0.00000	3582.08900
9.33612	0.00000	3599.58000
9.33994	0.00000	3599.58000
9.34378	0.00000	3599.58000
9.34761	0.00000	3599.58000
9.35144	0.00000	3601.97300
9.35527	0.00000	3601.97300
9.35911	0.00000	3601.97300
9.36295	0.00000	3601.97300
9.36678	0.00000	3601.97300
9.37061	0.00000	3576.38900
9.37444	0.00000	3576.38900
9.37828	0.00000	3576.38900
9.38212	0.00000	3576.38900
9.38595	0.00000	3605.49800
9.38979	0.00000	3605.49800
9.39364	0.00000	3605.49800
9.39747	0.00000	3605.49800
9.40130	0.00000	3605.49800
9.40513	0.00000	3599.58000
9.40896	0.00000	3599.58000
9.41279	0.00000	3599.58000
9.41663	0.00000	3599.58000
9.42047	0.00000	3599.58000
9.42429	0.00000	3582.08900
9.42812	0.00000	3582.08900
9.43195	0.00000	3582.08900
9.43578	0.00000	3582.08900
9.43961	0.00000	3601.97300
9.44344	0.00000	3601.97300
9.44727	0.00000	3601.97300
9.45111	0.00000	3601.97300
9.45495	0.00000	3601.97300
9.45879	0.00000	3572.91600
9.46262	0.00000	3572.91600
9.46645	0.00000	3572.91600
9.47028	0.00000	3572.91600
9.47411	0.00000	3601.97300
9.47794	0.00000	3601.97300
9.48177	0.00000	3601.97300
9.48562	0.00000	3601.97300
9.48945	0.00000	3601.97300
9.49328	0.00000	3599.58000
9.49712	0.00000	3599.58000
9.50094	0.00000	3599.58000
9.50477	0.00000	3599.58000
9.50862	0.00000	3575.09300
9.51246	0.00000	3575.09300
9.51631	0.00000	3575.09300
9.52015	0.00000	3575.09300
9.52400	0.00000	3575.09300
9.52783	0.00000	3612.54700
9.53167	0.00000	3612.54700
9.53549	0.00000	3612.54700
9.53934	0.00000	3612.54700
9.54317	0.00000	3612.54700
9.54700	0.00000	3589.08500
9.55084	0.00000	3589.08500
9.55466	0.00000	3589.08500
9.55848	0.00000	3589.08500
9.56232	0.00000	3601.97300
9.56615	0.00000	3601.97300
9.56997	0.00000	3601.97300
9.57381	0.00000	3601.97300
9.57764	0.00000	3601.97300
9.58147	0.00000	3599.58000
9.58530	0.00000	3599.58000
9.58913	0.00000	3599.58000
9.59296	0.00000	3599.58000
9.59680	0.00000	3571.59500
9.60064	0.00000	3571.59500
9.60447	0.00000	3571.59500
9.60831	0.00000	3571.59500
9.61214	0.00000	3571.59500
9.61597	0.00000	3599.58000
9.61980	0.00000	3599.58000
9.62363	0.00000	3599.58000
9.62746	0.00000	3599.58000
9.63130	0.00000	3598.44900
9.63512	0.00000	3598.44900
9.63896	0.00000	3598.44900
9.64279	0.00000	3598.44900
9.64663	0.00000	3598.44900
9.65046	0.00000	3601.97300
9.65429	0.00000	3601.97300
9.65814	0.00000	3601.97300
9.66197	0.00000	3601.97300
9.66580	0.00000	3601.97300
9.66965	0.00000	3592.58400
9.67348	0.00000	3592.58400
9.67732	0.00000	3592.58400
9.68115	0.00000	3592.58400
9.68498	0.00000	3594.92400
9.68881	0.00000	3594.92400
9.69264	0.00000	3594.92400
9.69648	0.00000	3594.92400
9.70031	0.00000	3594.92400
9.70416	0.00000	3603.07800
9.70799	0.00000	3603.07800
9.71184	0.00000	3603.07800
9.71571	0.00000	3603.07800
9.71955	0.00000	3578.59100
9.72339	0.00000	3578.59100
9.72722	0.00000	3578.59100
9.73105	0.00000	3578.59100
9.73490	0.00000	3578.59100
9.73875	0.00000	3596.08200
9.74258	0.00000	3596.08200
9.74642	0.00000	3596.08200
9.75025	0.00000	3596.08200
9.75408	0.00000	3596.08200
9.75790	0.00000	3582.08900
9.76174	0.00000	3582.08900
9.76558	0.00000	3582.08900
9.76941	0.00000	3582.08900
9.77323	0.00000	3598.44900
9.77707	0.00000	3598.44900
9.78091	0.00000	3598.44900
9.78474	0.00000	3598.44900
9.78857	0.00000	3598.44900
9.79241	0.00000	3596.08200
9.79624	0.00000	3596.08200
9.80007	0.00000	3596.08200
9.80391	0.00000	3596.08200
9.80775	0.00000	3571.59500
9.81159	0.00000	3571.59500
9.81543	0.00000	3571.59500
9.81926	0.00000	3571.59500
9.82309	0.00000	3571.59500
9.82693	0.00000	3596.08200
9.83076	0.00000	3596.08200
9.83460	0.00000	3596.08200
9.83843	0.00000	3596.08200
9.84227	0.00000	3598.44900
9.84610	0.00000	3598.44900
9.84993	0.00000	3598.44900
9.85376	0.00000	3598.44900
9.85760	0.00000	3598.44900
9.86144	0.00000	3605.49800
9.86527	0.00000	3605.49800
9.86910	0.00000	3605.49800
9.87294	0.00000	3605.49800
9.87677	0.00000	3605.49800
9.88061	0.00000	3585.58700
9.88444	0.00000	3585.58700
9.88828	0.00000	3585.58700
9.89211	0.00000	3585.58700
9.89595	0.00000	3598.44900
9.89978	0.00000	3598.44900
9.90361	0.00000	3598.44900
9.90745	0.00000	3598.44900
9.91128	0.00000	3598.44900
9.91512	0.00000	3592.58400
9.91895	0.00000	3592.58400
9.92278	0.00000	3592.58400
9.92662	0.00000	3592.58400
9.93046	0.00000	3591.40000
9.93429	0.00000	3591.40000
9.93812	0.00000	3591.40000
9.94196	0.00000	3591.40000
9.94582	0.00000	3591.40000
9.94966	0.00000	3589.08500
9.95349	0.00000	3589.08500
9.95733	0.00000	3589.08500
9.96116	0.00000	3589.08500
9.96500	0.00000	3568.09700
9.96883	0.00000	3568.09700
9.97266	0.00000	3568.09700
9.97650	0.00000	3568.09700
9.98033	0.00000	3568.09700
9.98417	0.00000	3578.59100
9.98799	0.00000	3578.59100
9.99182	0.00000	3578.59100
9.99565	0.00000	3578.59100
9.99949	0.00000	3578.59100
