Time (s)   Thrust (N)   RPM
0.00030	0.00000	5600.56300
0.00420	0.00000	5600.56300
0.00806	0.00000	5600.56300
0.01192	0.00000	5600.56300
0.01577	0.00000	5586.68800
0.01962	0.00000	5586.68800
0.02346	0.00000	5586.68800
0.02745	0.00000	5586.68800
0.03129	0.00000	5586.68800
0.03512	0.00000	5586.68800
0.03896	0.00000	5307.69200
0.04279	0.00000	5307.69200
0.04663	0.00000	5307.69200
0.05046	0.00000	5307.69200
0.05428	0.00000	5307.69200
0.05812	0.00000	5307.69200
0.06195	0.00000	5307.69200
0.06577	0.00000	4915.25400
0.06963	0.00000	4915.25400
0.07346	0.00000	4915.25400
0.07729	0.00000	4915.25400
0.08111	0.00000	4915.25400
0.08494	0.00000	4627.47700
0.08877	0.00000	4627.47700
0.09261	0.00000	4627.47700
0.09643	0.00000	4627.47700
0.10026	0.00000	4627.47700
0.10408	0.00000	4371.99500
0.10790	0.00000	4371.99500
0.11172	0.00000	4371.99500
0.11555	0.00000	4371.99500
0.11937	0.00000	4371.99500
0.12319	0.00000	4371.99500
0.12701	0.00000	4149.53800
0.13082	0.00000	4149.53800
0.13464	0.00000	4149.53800
0.13849	0.00000	4149.53800
0.14230	0.00000	3979.45800
0.14612	0.00000	3979.45800
0.14994	0.00000	3979.45800
0.15377	0.00000	3979.45800
0.15759	0.00000	3979.45800
0.16141	0.00000	3807.32900
0.16523	0.00000	3807.32900
0.16905	0.00000	3807.32900
0.17287	0.00000	3807.32900
0.17670	0.00000	3807.32900
0.18053	0.00000	3663.83200
0.18436	0.00000	3663.83200
0.18819	0.00000	3663.83200
0.19202	0.00000	3663.83200
0.19584	0.00000	3529.82900
0.19966	0.00000	3529.82900
0.20348	0.00000	3529.82900
0.20732	0.00000	3529.82900
0.21115	0.00000	3529.82900
0.21498	0.00000	3400.24000
0.21880	0.00000	3400.24000
0.22262	0.00000	3400.24000
0.22646	0.00000	3400.24000
0.23029	0.00000	3299.70400
0.23412	0.00000	3299.70400
0.23795	0.00000	3299.70400
0.24178	0.00000	3299.70400
0.24562	0.00000	3299.70400
0.24944	0.00000	3213.75000
0.25327	0.00000	3213.75000
0.25709	0.00000	3213.75000
0.26092	0.00000	3213.75000
0.26474	0.00000	3113.56700
0.26856	0.00000	3113.56700
0.27238	0.00000	3113.56700
0.27621	0.00000	3113.56700
0.28004	0.00000	3037.19000
0.28387	0.00000	3037.19000
0.28769	0.00000	3037.19000
0.29151	0.00000	3037.19000
0.29535	0.00000	2974.00200
0.29917	0.00000	2974.00200
0.30301	0.00000	2974.00200
0.30683	0.00000	2974.00200
0.31065	0.00000	2887.97600
0.31448	0.00000	2887.97600
0.31829	0.00000	2887.97600
0.32211	0.00000	2887.97600
0.32594	0.00000	2796.61000
0.32976	0.00000	2796.61000
0.33359	0.00000	2796.61000
0.33741	0.00000	2796.61000
0.34125	0.00000	2759.96700
0.34508	0.00000	2759.96700
0.34890	0.00000	2759.96700
0.35272	0.00000	2759.96700
0.35655	0.00000	2698.36900
0.36037	0.00000	2698.36900
0.36419	0.00000	2698.36900
0.36802	0.00000	2698.36900
0.37185	0.00000	2648.02600
0.37568	0.00000	2648.02600
0.37950	0.00000	2648.02600
0.38334	0.00000	2648.02600
0.38715	0.00000	2600.94000
0.39098	0.00000	2600.94000
0.39481	0.00000	2600.94000
0.39864	0.00000	2600.94000
0.40248	0.00000	2534.56800
0.40629	0.00000	2534.56800
0.41011	0.00000	2534.56800
0.41393	0.00000	2534.56800
0.41775	0.00000	2498.60500
0.42158	0.00000	2498.60500
0.42540	0.00000	2498.60500
0.42922	0.00000	2453.54700
0.43304	0.00000	2453.54700
0.43686	0.00000	2453.54700
0.44068	0.00000	2453.54700
0.44450	0.00000	2420.45400
0.44832	0.00000	2420.45400
0.45215	0.00000	2420.45400
0.45597	0.00000	2420.45400
0.45979	0.00000	2386.36300
0.46361	0.00000	2386.36300
0.46744	0.00000	2386.36300
0.47127	0.00000	2386.36300
0.47509	0.00000	2335.22700
0.47891	0.00000	2335.22700
0.48273	0.00000	2335.22700
0.48655	0.00000	2335.22700
0.49037	0.00000	2335.06900
0.49420	0.00000	2335.06900
0.49802	0.00000	2335.06900
0.50184	0.00000	2304.32200
0.50567	0.00000	2304.32200
0.50949	0.00000	2304.32200
0.51331	0.00000	2304.32200
0.51714	0.00000	2278.03700
0.52096	0.00000	2278.03700
0.52478	0.00000	2278.03700
0.52860	0.00000	2278.03700
0.53243	0.00000	2242.99000
0.53625	0.00000	2242.99000
0.54007	0.00000	2242.99000
0.54389	0.00000	2190.42000
0.54773	0.00000	2190.42000
0.55155	0.00000	2190.42000
0.55538	0.00000	2190.42000
0.55922	0.00000	2193.39600
0.56305	0.00000	2193.39600
0.56688	0.00000	2193.39600
0.57070	0.00000	2193.39600
0.57453	0.00000	2162.44100
0.57835	0.00000	2162.44100
0.58217	0.00000	2162.44100
0.58600	0.00000	2127.06300
0.58983	0.00000	2127.06300
0.59366	0.00000	2127.06300
0.59748	0.00000	2127.06300
0.60130	0.00000	2125.00000
0.60512	0.00000	2125.00000
0.60895	0.00000	2125.00000
0.61277	0.00000	2125.00000
0.61659	0.00000	2107.14300
0.62041	0.00000	2107.14300
0.62423	0.00000	2107.14300
0.62805	0.00000	2066.96400
0.63187	0.00000	2066.96400
0.63569	0.00000	2066.96400
0.63951	0.00000	2066.96400
0.64335	0.00000	2053.57100
0.64717	0.00000	2053.57100
0.65099	0.00000	2053.57100
0.65481	0.00000	2041.76600
0.65863	0.00000	2041.76600
0.66247	0.00000	2041.76600
0.66629	0.00000	2041.76600
0.67011	0.00000	2043.38600
0.67393	0.00000	2043.38600
0.67775	0.00000	2043.38600
0.68158	0.00000	2043.38600
0.68540	0.00000	2010.21600
0.68923	0.00000	2010.21600
0.69308	0.00000	2010.21600
0.69691	0.00000	1997.87600
0.70074	0.00000	1997.87600
0.70456	0.00000	1997.87600
0.70839	0.00000	1997.87600
0.71221	0.00000	1974.15800
0.71603	0.00000	1974.15800
0.71986	0.00000	1974.15800
0.72368	0.00000	1961.46800
0.72752	0.00000	1961.46800
0.73135	0.00000	1961.46800
0.73516	0.00000	1961.46800
0.73898	0.00000	1961.46800
0.74280	0.00000	1961.46800
0.74663	0.00000	1961.46800
0.75045	0.00000	1948.52900
0.75428	0.00000	1948.52900
0.75811	0.00000	1948.52900
0.76193	0.00000	1948.52900
0.76575	0.00000	1920.50900
0.76957	0.00000	1920.50900
0.77340	0.00000	1920.50900
0.77722	0.00000	1920.50900
0.78104	0.00000	1925.55100
0.78487	0.00000	1925.55100
0.78869	0.00000	1925.55100
0.79251	0.00000	1907.16900
0.79634	0.00000	1907.16900
0.80016	0.00000	1907.16900
0.80398	0.00000	1907.16900
0.80780	0.00000	1888.65200
0.81163	0.00000	1888.65200
0.81544	0.00000	1888.65200
0.81926	0.00000	1879.59500
0.82309	0.00000	1879.59500
0.82691	0.00000	1879.59500
0.83074	0.00000	1879.59500
0.83457	0.00000	1884.19100
0.83839	0.00000	1884.19100
0.84221	0.00000	1884.19100
0.84604	0.00000	1861.21300
0.84986	0.00000	1861.21300
0.85368	0.00000	1861.21300
0.85750	0.00000	1861.21300
0.86132	0.00000	1861.21300
0.86514	0.00000	1861.21300
0.86898	0.00000	1861.21300
0.87280	0.00000	1861.07600
0.87662	0.00000	1861.07600
0.88046	0.00000	1861.07600
0.88428	0.00000	1861.07600
0.88810	0.00000	1861.07600
0.89193	0.00000	1861.07600
0.89576	0.00000	1861.07600
0.89958	0.00000	1837.87100
0.90341	0.00000	1837.87100
0.90723	0.00000	1837.87100
0.91105	0.00000	1837.87100
0.91488	0.00000	1842.51200
0.91870	0.00000	1842.51200
0.92252	0.00000	1842.51200
0.92634	0.00000	1842.18700
0.93016	0.00000	1842.18700
0.93398	0.00000	1842.18700
0.93780	0.00000	1842.18700
0.94162	0.00000	1823.94800
0.94546	0.00000	1823.94800
0.94928	0.00000	1823.94800
0.95310	0.00000	1800.74200
0.95692	0.00000	1800.74200
0.96074	0.00000	1800.74200
0.96457	0.00000	1800.74200
0.96840	0.00000	1810.02400
0.97223	0.00000	1810.02400
0.97606	0.00000	1810.02400
0.97989	0.00000	1786.81900
0.98371	0.00000	1786.81900
0.98753	0.00000	1786.81900
0.99135	0.00000	1786.81900
0.99518	0.00000	1791.46000
0.99901	0.00000	1791.46000
1.00284	0.00000	1791.46000
1.00665	0.00000	1777.53700
1.01049	0.00000	1777.53700
1.01431	0.00000	1777.53700
1.01813	0.00000	1790.62500
1.02195	0.00000	1790.62500
1.02578	0.00000	1790.62500
1.02961	0.00000	1790.62500
1.03343	0.00000	1790.62500
1.03725	0.00000	1790.62500
1.04108	0.00000	1790.62500
1.04490	0.00000	1776.56200
1.04872	0.00000	1776.56200
1.05256	0.00000	1776.56200
1.05638	0.00000	1776.56200
1.06020	0.00000	1776.56200
1.06403	0.00000	1776.56200
1.06784	0.00000	1776.56200
1.07168	0.00000	1771.87500
1.07552	0.00000	1771.87500
1.07933	0.00000	1771.87500
1.08317	0.00000	1771.87500
1.08700	0.00000	1771.87500
1.09082	0.00000	1771.87500
1.09464	0.00000	1771.87500
1.09846	0.00000	1762.50000
1.10229	0.00000	1762.50000
1.10611	0.00000	1762.50000
1.10996	0.00000	1762.50000
1.11380	0.00000	1767.18700
1.11763	0.00000	1767.18700
1.12145	0.00000	1767.18700
1.12528	0.00000	1766.09800
1.12910	0.00000	1766.09800
1.13292	0.00000	1766.09800
1.13674	0.00000	1766.09800
1.14057	0.00000	1753.12500
1.14439	0.00000	1753.12500
1.14821	0.00000	1753.12500
1.15203	0.00000	1739.06200
1.15586	0.00000	1739.06200
1.15969	0.00000	1739.06200
1.16351	0.00000	1739.06200
1.16733	0.00000	1748.43700
1.17116	0.00000	1748.43700
1.17498	0.00000	1748.43700
1.17880	0.00000	1751.89400
1.18263	0.00000	1751.89400
1.18645	0.00000	1751.89400
1.19028	0.00000	1747.15900
1.19410	0.00000	1747.15900
1.19792	0.00000	1747.15900
1.20174	0.00000	1747.15900
1.20556	0.00000	1747.15900
1.20938	0.00000	1747.15900
1.21320	0.00000	1747.15900
1.21702	0.00000	1742.42400
1.22084	0.00000	1742.42400
1.22466	0.00000	1742.42400
1.22849	0.00000	1742.42400
1.23230	0.00000	1734.37500
1.23613	0.00000	1734.37500
1.23995	0.00000	1734.37500
1.24378	0.00000	1737.68900
1.24760	0.00000	1737.68900
1.25142	0.00000	1737.68900
1.25524	0.00000	1737.68900
1.25906	0.00000	1729.68700
1.26289	0.00000	1729.68700
1.26671	0.00000	1729.68700
1.27053	0.00000	1732.95400
1.27434	0.00000	1732.95400
1.27816	0.00000	1732.95400
1.28198	0.00000	1732.95400
1.28581	0.00000	1725.00000
1.28964	0.00000	1725.00000
1.29346	0.00000	1725.00000
1.29729	0.00000	1728.21900
1.30112	0.00000	1728.21900
1.30494	0.00000	1728.21900
1.30876	0.00000	1728.21900
1.31258	0.00000	1710.93700
1.31640	0.00000	1710.93700
1.32022	0.00000	1710.93700
1.32403	0.00000	1723.48400
1.32785	0.00000	1723.48400
1.33167	0.00000	1723.48400
1.33549	0.00000	1723.48400
1.33931	0.00000	1723.48400
1.34313	0.00000	1723.48400
1.34695	0.00000	1723.48400
1.35077	0.00000	1706.25000
1.35459	0.00000	1706.25000
1.35842	0.00000	1706.25000
1.36223	0.00000	1714.01500
1.36606	0.00000	1714.01500
1.36988	0.00000	1714.01500
1.37370	0.00000	1714.01500
1.37753	0.00000	1706.25000
1.38135	0.00000	1706.25000
1.38518	0.00000	1706.25000
1.38901	0.00000	1696.87500
1.39283	0.00000	1696.87500
1.39665	0.00000	1696.87500
1.40047	0.00000	1696.87500
1.40428	0.00000	1706.25000
1.40811	0.00000	1706.25000
1.41192	0.00000	1706.25000
1.41576	0.00000	1709.28000
1.41958	0.00000	1709.28000
1.42340	0.00000	1709.28000
1.42722	0.00000	1709.28000
1.43104	0.00000	1709.28000
1.43487	0.00000	1709.28000
1.43865	0.00000	1709.28000
1.44248	0.00000	1709.28000
1.44630	0.00000	1709.28000
1.45013	0.00000	1709.28000
1.45396	0.00000	1704.54500
1.45779	0.00000	1704.54500
1.46161	0.00000	1704.54500
1.46544	0.00000	1704.54500
1.46926	0.00000	1696.87500
1.47308	0.00000	1696.87500
1.47689	0.00000	1696.87500
1.48071	0.00000	1709.28000
1.48454	0.00000	1709.28000
1.48836	0.00000	1709.28000
1.49217	0.00000	1709.28000
1.49600	0.00000	1701.56200
1.49982	0.00000	1701.56200
1.50364	0.00000	1701.56200
1.50746	0.00000	1704.54500
1.51128	0.00000	1704.54500
1.51510	0.00000	1704.54500
1.51893	0.00000	1704.54500
1.52275	0.00000	1709.28000
1.52657	0.00000	1709.28000
1.53039	0.00000	1709.28000
1.53422	0.00000	1699.81000
1.53804	0.00000	1699.81000
1.54187	0.00000	1699.81000
1.54570	0.00000	1699.81000
1.54951	0.00000	1699.81000
1.55334	0.00000	1699.81000
1.55716	0.00000	1699.81000
1.56098	0.00000	1704.54500
1.56480	0.00000	1704.54500
1.56862	0.00000	1704.54500
1.57244	0.00000	1695.07500
1.57627	0.00000	1695.07500
1.58009	0.00000	1695.07500
1.58391	0.00000	1695.07500
1.58773	0.00000	1692.18700
1.59156	0.00000	1692.18700
1.59538	0.00000	1692.18700
1.59920	0.00000	1690.34000
1.60302	0.00000	1690.34000
1.60685	0.00000	1690.34000
1.61065	0.00000	1690.34000
1.61448	0.00000	1704.54500
1.61830	0.00000	1704.54500
1.62211	0.00000	1704.54500
1.62593	0.00000	1695.07500
1.62975	0.00000	1695.07500
1.63358	0.00000	1695.07500
1.63740	0.00000	1690.34000
1.64122	0.00000	1690.34000
1.64503	0.00000	1690.34000
1.64885	0.00000	1690.34000
1.65268	0.00000	1690.34000
1.65650	0.00000	1690.34000
1.66032	0.00000	1690.34000
1.66414	0.00000	1695.07500
1.66796	0.00000	1695.07500
1.67179	0.00000	1695.07500
1.67561	0.00000	1695.07500
1.67943	0.00000	1704.54500
1.68326	0.00000	1704.54500
1.68708	0.00000	1704.54500
1.69090	0.00000	1690.34000
1.69472	0.00000	1690.34000
1.69854	0.00000	1690.34000
1.70236	0.00000	1690.34000
1.70618	0.00000	1682.81200
1.71001	0.00000	1682.81200
1.71383	0.00000	1682.81200
1.71765	0.00000	1685.60600
1.72148	0.00000	1685.60600
1.72530	0.00000	1685.60600
1.72913	0.00000	1695.07500
1.73294	0.00000	1695.07500
1.73677	0.00000	1695.07500
1.74059	0.00000	1695.07500
1.74440	0.00000	1690.34000
1.74823	0.00000	1690.34000
1.75205	0.00000	1690.34000
1.75587	0.00000	1685.60600
1.75969	0.00000	1685.60600
1.76352	0.00000	1685.60600
1.76733	0.00000	1685.60600
1.77116	0.00000	1682.81200
1.77498	0.00000	1682.81200
1.77880	0.00000	1682.81200
1.78262	0.00000	1685.60600
1.78644	0.00000	1685.60600
1.79027	0.00000	1685.60600
1.79409	0.00000	1685.60600
1.79791	0.00000	1682.81200
1.80173	0.00000	1682.81200
1.80555	0.00000	1682.81200
1.80937	0.00000	1690.34000
1.81320	0.00000	1690.34000
1.81702	0.00000	1690.34000
1.82084	0.00000	1685.60600
1.82466	0.00000	1685.60600
1.82848	0.00000	1685.60600
1.83231	0.00000	1685.60600
1.83614	0.00000	1690.34000
1.83996	0.00000	1690.34000
1.84378	0.00000	1690.34000
1.84761	0.00000	1685.60600
1.85143	0.00000	1685.60600
1.85525	0.00000	1685.60600
1.85907	0.00000	1685.60600
1.86289	0.00000	1695.07500
1.86672	0.00000	1695.07500
1.87054	0.00000	1695.07500
1.87436	0.00000	1685.60600
1.87818	0.00000	1685.60600
1.88201	0.00000	1685.60600
1.88584	0.00000	1685.60600
1.88966	0.00000	1695.07500
1.89348	0.00000	1695.07500
1.89730	0.00000	1695.07500
1.90113	0.00000	1685.60600
1.90495	0.00000	1685.60600
1.90877	0.00000	1685.60600
1.91260	0.00000	1685.60600
1.91641	0.00000	1690.34000
1.92025	0.00000	1690.34000
1.92407	0.00000	1690.34000
1.92789	0.00000	1698.02300
1.93172	0.00000	1698.02300
1.93553	0.00000	1698.02300
1.93935	0.00000	1685.60600
1.94317	0.00000	1685.60600
1.94699	0.00000	1685.60600
1.95082	0.00000	1685.60600
1.95464	0.00000	1695.07500
1.95847	0.00000	1695.07500
1.96229	0.00000	1695.07500
1.96612	0.00000	1698.02300
1.96993	0.00000	1698.02300
1.97376	0.00000	1698.02300
1.97757	0.00000	1698.02300
1.98140	0.00000	1695.07500
1.98522	0.00000	1695.07500
1.98903	0.00000	1695.07500
1.99286	0.00000	1702.80600
1.99668	0.00000	1702.80600
2.00051	0.00000	1702.80600
2.00432	0.00000	1702.80600
2.00814	0.00000	1685.60600
2.01196	0.00000	1685.60600
2.01578	0.00000	1685.60600
2.01961	0.00000	1685.60600
2.02343	0.00000	1685.60600
2.02725	0.00000	1685.60600
2.03108	0.00000	1680.87100
2.03491	0.00000	1680.87100
2.03873	0.00000	1680.87100
2.04255	0.00000	1680.87100
2.04637	0.00000	1695.07500
2.05018	0.00000	1695.07500
2.05401	0.00000	1695.07500
2.05782	0.00000	1685.60600
2.06165	0.00000	1685.60600
2.06547	0.00000	1685.60600
2.06929	0.00000	1685.60600
2.07311	0.00000	1695.07500
2.07692	0.00000	1695.07500
2.08074	0.00000	1695.07500
2.08457	0.00000	1685.60600
2.08840	0.00000	1685.60600
2.09221	0.00000	1685.60600
2.09603	0.00000	1685.60600
2.09986	0.00000	1685.60600
2.10368	0.00000	1685.60600
2.10750	0.00000	1685.60600
2.11133	0.00000	1680.87100
2.11514	0.00000	1680.87100
2.11896	0.00000	1680.87100
2.12279	0.00000	1685.60600
2.12661	0.00000	1685.60600
2.13043	0.00000	1685.60600
2.13425	0.00000	1685.60600
2.13807	0.00000	1673.43700
2.14189	0.00000	1673.43700
2.14571	0.00000	1673.43700
2.14953	0.00000	1680.87100
2.15335	0.00000	1680.87100
2.15717	0.00000	1680.87100
2.16099	0.00000	1680.87100
2.16481	0.00000	1678.12500
2.16863	0.00000	1678.12500
2.17244	0.00000	1678.12500
2.17626	0.00000	1680.87100
2.18008	0.00000	1680.87100
2.18390	0.00000	1680.87100
2.18772	0.00000	1680.87100
2.19154	0.00000	1690.34000
2.19536	0.00000	1690.34000
2.19918	0.00000	1690.34000
2.20301	0.00000	1698.02300
2.20684	0.00000	1698.02300
2.21065	0.00000	1698.02300
2.21448	0.00000	1680.87100
2.21831	0.00000	1680.87100
2.22213	0.00000	1680.87100
2.22595	0.00000	1680.87100
2.22977	0.00000	1695.07500
2.23359	0.00000	1695.07500
2.23741	0.00000	1695.07500
2.24124	0.00000	1685.60600
2.24505	0.00000	1685.60600
2.24888	0.00000	1685.60600
2.25269	0.00000	1685.60600
2.25651	0.00000	1695.07500
2.26033	0.00000	1695.07500
2.26415	0.00000	1695.07500
2.26797	0.00000	1702.80600
2.27179	0.00000	1702.80600
2.27562	0.00000	1702.80600
2.27944	0.00000	1702.80600
2.28327	0.00000	1690.34000
2.28709	0.00000	1690.34000
2.29091	0.00000	1690.34000
2.29473	0.00000	1685.60600
2.29855	0.00000	1685.60600
2.30237	0.00000	1685.60600
2.30619	0.00000	1698.02300
2.31001	0.00000	1698.02300
2.31384	0.00000	1698.02300
2.31766	0.00000	1698.02300
2.32148	0.00000	1685.60600
2.32530	0.00000	1685.60600
2.32912	0.00000	1685.60600
2.33294	0.00000	1680.87100
2.33676	0.00000	1680.87100
2.34058	0.00000	1680.87100
2.34439	0.00000	1680.87100
2.34821	0.00000	1673.43700
2.35204	0.00000	1673.43700
2.35585	0.00000	1673.43700
2.35967	0.00000	1680.87100
2.36349	0.00000	1680.87100
2.36731	0.00000	1680.87100
2.37113	0.00000	1680.87100
2.37495	0.00000	1673.43700
2.37877	0.00000	1673.43700
2.38260	0.00000	1673.43700
2.38642	0.00000	1680.87100
2.39023	0.00000	1680.87100
2.39406	0.00000	1680.87100
2.39788	0.00000	1680.87100
2.40171	0.00000	1680.87100
2.40553	0.00000	1680.87100
2.40936	0.00000	1680.87100
2.41317	0.00000	1673.43700
2.41699	0.00000	1673.43700
2.42081	0.00000	1673.43700
2.42463	0.00000	1680.87100
2.42845	0.00000	1680.87100
2.43228	0.00000	1680.87100
2.43610	0.00000	1680.87100
2.43992	0.00000	1690.34000
2.44374	0.00000	1690.34000
2.44757	0.00000	1690.34000
2.45140	0.00000	1680.87100
2.45521	0.00000	1680.87100
2.45903	0.00000	1680.87100
2.46286	0.00000	1680.87100
2.46665	0.00000	1685.60600
2.47048	0.00000	1685.60600
2.47430	0.00000	1685.60600
2.47812	0.00000	1702.80600
2.48194	0.00000	1702.80600
2.48576	0.00000	1702.80600
2.48958	0.00000	1698.02300
2.49341	0.00000	1698.02300
2.49723	0.00000	1698.02300
2.50106	0.00000	1698.02300
2.50487	0.00000	1685.60600
2.50869	0.00000	1685.60600
2.51251	0.00000	1685.60600
2.51633	0.00000	1680.87100
2.52016	0.00000	1680.87100
2.52398	0.00000	1680.87100
2.52780	0.00000	1680.87100
2.53162	0.00000	1690.34000
2.53545	0.00000	1690.34000
2.53927	0.00000	1690.34000
2.54309	0.00000	1680.87100
2.54691	0.00000	1680.87100
2.55073	0.00000	1680.87100
2.55455	0.00000	1680.87100
2.55837	0.00000	1673.43700
2.56219	0.00000	1673.43700
2.56601	0.00000	1673.43700
2.56983	0.00000	1680.87100
2.57365	0.00000	1680.87100
2.57748	0.00000	1680.87100
2.58130	0.00000	1680.87100
2.58512	0.00000	1680.87100
2.58894	0.00000	1680.87100
2.59276	0.00000	1680.87100
2.59658	0.00000	1685.60600
2.60040	0.00000	1685.60600
2.60422	0.00000	1685.60600
2.60804	0.00000	1676.13600
2.61188	0.00000	1676.13600
2.61570	0.00000	1676.13600
2.61952	0.00000	1676.13600
2.62334	0.00000	1695.07500
2.62717	0.00000	1695.07500
2.63098	0.00000	1695.07500
2.63480	0.00000	1693.23900
2.63863	0.00000	1693.23900
2.64245	0.00000	1693.23900
2.64627	0.00000	1693.23900
2.65010	0.00000	1690.34000
2.65391	0.00000	1690.34000
2.65774	0.00000	1690.34000
2.66156	0.00000	1702.80600
2.66538	0.00000	1702.80600
2.66920	0.00000	1702.80600
2.67302	0.00000	1685.60600
2.67685	0.00000	1685.60600
2.68068	0.00000	1685.60600
2.68450	0.00000	1685.60600
2.68832	0.00000	1690.34000
2.69214	0.00000	1690.34000
2.69596	0.00000	1690.34000
2.69978	0.00000	1702.80600
2.70360	0.00000	1702.80600
2.70742	0.00000	1702.80600
2.71124	0.00000	1702.80600
2.71506	0.00000	1685.60600
2.71888	0.00000	1685.60600
2.72270	0.00000	1685.60600
2.72652	0.00000	1680.87100
2.73034	0.00000	1680.87100
2.73416	0.00000	1680.87100
2.73797	0.00000	1680.87100
2.74180	0.00000	1673.43700
2.74562	0.00000	1673.43700
2.74945	0.00000	1673.43700
2.75327	0.00000	1680.87100
2.75709	0.00000	1680.87100
2.76091	0.00000	1680.87100
2.76473	0.00000	1680.87100
2.76855	0.00000	1680.87100
2.77237	0.00000	1680.87100
2.77620	0.00000	1680.87100
2.78002	0.00000	1685.60600
2.78384	0.00000	1685.60600
2.78766	0.00000	1685.60600
2.79149	0.00000	1680.87100
2.79531	0.00000	1680.87100
2.79913	0.00000	1680.87100
2.80296	0.00000	1680.87100
2.80678	0.00000	1673.43700
2.81060	0.00000	1673.43700
2.81442	0.00000	1673.43700
2.81824	0.00000	1680.87100
2.82206	0.00000	1680.87100
2.82588	0.00000	1680.87100
2.82971	0.00000	1680.87100
2.83353	0.00000	1690.34000
2.83735	0.00000	1690.34000
2.84118	0.00000	1690.34000
2.84500	0.00000	1698.02300
2.84883	0.00000	1698.02300
2.85265	0.00000	1698.02300
2.85647	0.00000	1680.87100
2.86029	0.00000	1680.87100
2.86412	0.00000	1680.87100
2.86795	0.00000	1680.87100
2.87177	0.00000	1690.34000
2.87558	0.00000	1690.34000
2.87940	0.00000	1690.34000
2.88323	0.00000	1702.80600
2.88705	0.00000	1702.80600
2.89087	0.00000	1702.80600
2.89465	0.00000	1702.80600
2.89848	0.00000	1690.34000
2.90230	0.00000	1690.34000
2.90613	0.00000	1690.34000
2.90995	0.00000	1680.87100
2.91377	0.00000	1680.87100
2.91759	0.00000	1680.87100
2.92141	0.00000	1680.87100
2.92523	0.00000	1685.60600
2.92905	0.00000	1685.60600
2.93287	0.00000	1685.60600
2.93669	0.00000	1680.87100
2.94051	0.00000	1680.87100
2.94433	0.00000	1680.87100
2.94815	0.00000	1680.87100
2.95197	0.00000	1680.87100
2.95578	0.00000	1680.87100
2.95960	0.00000	1680.87100
2.96344	0.00000	1685.60600
2.96726	0.00000	1685.60600
2.97108	0.00000	1685.60600
2.97490	0.00000	1685.60600
2.97872	0.00000	1685.60600
2.98254	0.00000	1685.60600
2.98636	0.00000	1685.60600
2.99018	0.00000	1678.12500
2.99401	0.00000	1678.12500
2.99783	0.00000	1678.12500
3.00165	0.00000	1680.87100
3.00548	0.00000	1680.87100
3.00930	0.00000	1680.87100
3.01311	0.00000	1680.87100
3.01694	0.00000	1690.34000
3.02076	0.00000	1690.34000
3.02457	0.00000	1690.34000
3.02841	0.00000	1680.87100
3.03223	0.00000	1680.87100
3.03605	0.00000	1680.87100
3.03987	0.00000	1680.87100
3.04369	0.00000	1680.87100
3.04751	0.00000	1680.87100
3.05134	0.00000	1680.87100
3.05516	0.00000	1685.60600
3.05898	0.00000	1685.60600
3.06280	0.00000	1685.60600
3.06663	0.00000	1698.02300
3.07045	0.00000	1698.02300
3.07426	0.00000	1698.02300
3.07808	0.00000	1698.02300
3.08190	0.00000	1690.34000
3.08573	0.00000	1690.34000
3.08955	0.00000	1690.34000
3.09337	0.00000	1680.87100
3.09719	0.00000	1680.87100
3.10102	0.00000	1680.87100
3.10484	0.00000	1680.87100
3.10867	0.00000	1690.34000
3.11249	0.00000	1690.34000
3.11631	0.00000	1690.34000
3.12012	0.00000	1680.87100
3.12394	0.00000	1680.87100
3.12777	0.00000	1680.87100
3.13158	0.00000	1680.87100
3.13541	0.00000	1680.87100
3.13922	0.00000	1680.87100
3.14304	0.00000	1680.87100
3.14687	0.00000	1680.87100
3.15065	0.00000	1680.87100
3.15447	0.00000	1680.87100
3.15829	0.00000	1685.60600
3.16212	0.00000	1685.60600
3.16594	0.00000	1685.60600
3.16976	0.00000	1685.60600
3.17357	0.00000	1678.12500
3.17740	0.00000	1678.12500
3.18122	0.00000	1678.12500
3.18504	0.00000	1685.60600
3.18887	0.00000	1685.60600
3.19268	0.00000	1685.60600
3.19650	0.00000	1685.60600
3.20032	0.00000	1678.12500
3.20415	0.00000	1678.12500
3.20798	0.00000	1678.12500
3.21180	0.00000	1680.87100
3.21563	0.00000	1680.87100
3.21945	0.00000	1680.87100
3.22327	0.00000	1680.87100
3.22709	0.00000	1680.87100
3.23090	0.00000	1680.87100
3.23472	0.00000	1680.87100
3.23855	0.00000	1698.02300
3.24237	0.00000	1698.02300
3.24619	0.00000	1698.02300
3.25000	0.00000	1680.87100
3.25382	0.00000	1680.87100
3.25764	0.00000	1680.87100
3.26146	0.00000	1680.87100
3.26528	0.00000	1695.07500
3.26910	0.00000	1695.07500
3.27292	0.00000	1695.07500
3.27674	0.00000	1698.02300
3.28056	0.00000	1698.02300
3.28438	0.00000	1698.02300
3.28820	0.00000	1698.02300
3.29202	0.00000	1690.34000
3.29584	0.00000	1690.34000
3.29966	0.00000	1690.34000
3.30348	0.00000	1680.87100
3.30731	0.00000	1680.87100
3.31113	0.00000	1680.87100
3.31495	0.00000	1698.02300
3.31877	0.00000	1698.02300
3.32258	0.00000	1698.02300
3.32642	0.00000	1698.02300
3.33023	0.00000	1685.60600
3.33405	0.00000	1685.60600
3.33787	0.00000	1685.60600
3.34171	0.00000	1680.87100
3.34553	0.00000	1680.87100
3.34935	0.00000	1680.87100
3.35317	0.00000	1680.87100
3.35699	0.00000	1673.43700
3.36081	0.00000	1673.43700
3.36464	0.00000	1673.43700
3.36846	0.00000	1685.60600
3.37228	0.00000	1685.60600
3.37610	0.00000	1685.60600
3.37992	0.00000	1685.60600
3.38374	0.00000	1678.12500
3.38757	0.00000	1678.12500
3.39139	0.00000	1678.12500
3.39522	0.00000	1676.13600
3.39904	0.00000	1676.13600
3.40287	0.00000	1676.13600
3.40665	0.00000	1680.87100
3.41047	0.00000	1680.87100
3.41429	0.00000	1680.87100
3.41812	0.00000	1680.87100
3.42194	0.00000	1698.02300
3.42576	0.00000	1698.02300
3.42958	0.00000	1698.02300
3.43339	0.00000	1680.87100
3.43723	0.00000	1680.87100
3.44105	0.00000	1680.87100
3.44488	0.00000	1680.87100
3.44870	0.00000	1695.07500
3.45252	0.00000	1695.07500
3.45635	0.00000	1695.07500
3.46017	0.00000	1698.02300
3.46400	0.00000	1698.02300
3.46782	0.00000	1698.02300
3.47164	0.00000	1698.02300
3.47546	0.00000	1695.07500
3.47928	0.00000	1695.07500
3.48311	0.00000	1695.07500
3.48693	0.00000	1698.02300
3.49076	0.00000	1698.02300
3.49458	0.00000	1698.02300
3.49840	0.00000	1698.02300
3.50225	0.00000	1698.02300
3.50608	0.00000	1698.02300
3.50990	0.00000	1698.02300
3.51373	0.00000	1685.60600
3.51755	0.00000	1685.60600
3.52139	0.00000	1685.60600
3.52522	0.00000	1676.13600
3.52905	0.00000	1676.13600
3.53287	0.00000	1676.13600
3.53669	0.00000	1676.13600
3.54052	0.00000	1678.12500
3.54434	0.00000	1678.12500
3.54816	0.00000	1678.12500
3.55198	0.00000	1685.60600
3.55578	0.00000	1685.60600
3.55960	0.00000	1685.60600
3.56342	0.00000	1685.60600
3.56724	0.00000	1673.43700
3.57106	0.00000	1673.43700
3.57488	0.00000	1673.43700
3.57870	0.00000	1680.87100
3.58252	0.00000	1680.87100
3.58634	0.00000	1680.87100
3.59016	0.00000	1685.60600
3.59398	0.00000	1685.60600
3.59780	0.00000	1685.60600
3.60162	0.00000	1685.60600
3.60544	0.00000	1680.87100
3.60927	0.00000	1680.87100
3.61309	0.00000	1680.87100
3.61691	0.00000	1680.87100
3.62073	0.00000	1680.87100
3.62455	0.00000	1680.87100
3.62838	0.00000	1680.87100
3.63220	0.00000	1690.34000
3.63602	0.00000	1690.34000
3.63984	0.00000	1690.34000
3.64366	0.00000	1680.87100
3.64749	0.00000	1680.87100
3.65131	0.00000	1680.87100
3.65513	0.00000	1680.87100
3.65895	0.00000	1695.07500
3.66277	0.00000	1695.07500
3.66659	0.00000	1695.07500
3.67042	0.00000	1698.02300
3.67424	0.00000	1698.02300
3.67806	0.00000	1698.02300
3.68188	0.00000	1676.13600
3.68571	0.00000	1676.13600
3.68953	0.00000	1676.13600
3.69335	0.00000	1676.13600
3.69718	0.00000	1685.60600
3.70100	0.00000	1685.60600
3.70482	0.00000	1685.60600
3.70864	0.00000	1680.87100
3.71247	0.00000	1680.87100
3.71629	0.00000	1680.87100
3.72012	0.00000	1680.87100
3.72394	0.00000	1685.60600
3.72776	0.00000	1685.60600
3.73159	0.00000	1685.60600
3.73541	0.00000	1680.87100
3.73922	0.00000	1680.87100
3.74304	0.00000	1680.87100
3.74687	0.00000	1680.87100
3.75065	0.00000	1668.75000
3.75448	0.00000	1668.75000
3.75830	0.00000	1668.75000
3.76212	0.00000	1685.60600
3.76594	0.00000	1685.60600
3.76976	0.00000	1685.60600
3.77358	0.00000	1680.87100
3.77739	0.00000	1680.87100
3.78122	0.00000	1680.87100
3.78504	0.00000	1680.87100
3.78887	0.00000	1680.87100
3.79269	0.00000	1680.87100
3.79651	0.00000	1680.87100
3.80033	0.00000	1680.87100
3.80415	0.00000	1680.87100
3.80797	0.00000	1680.87100
3.81179	0.00000	1680.87100
3.81562	0.00000	1690.34000
3.81944	0.00000	1690.34000
3.82326	0.00000	1690.34000
3.82709	0.00000	1680.87100
3.83092	0.00000	1680.87100
3.83474	0.00000	1680.87100
3.83857	0.00000	1680.87100
3.84239	0.00000	1690.34000
3.84621	0.00000	1690.34000
3.85003	0.00000	1690.34000
3.85385	0.00000	1698.02300
3.85768	0.00000	1698.02300
3.86153	0.00000	1698.02300
3.86537	0.00000	1693.23900
3.86919	0.00000	1693.23900
3.87301	0.00000	1693.23900
3.87683	0.00000	1693.23900
3.88065	0.00000	1685.60600
3.88447	0.00000	1685.60600
3.88830	0.00000	1685.60600
3.89212	0.00000	1676.13600
3.89595	0.00000	1676.13600
3.89977	0.00000	1676.13600
3.90359	0.00000	1676.13600
3.90742	0.00000	1673.43700
3.91124	0.00000	1673.43700
3.91507	0.00000	1673.43700
3.91889	0.00000	1676.13600
3.92271	0.00000	1676.13600
3.92653	0.00000	1676.13600
3.93035	0.00000	1676.13600
3.93416	0.00000	1685.60600
3.93799	0.00000	1685.60600
3.94182	0.00000	1685.60600
3.94563	0.00000	1685.60600
3.94946	0.00000	1685.60600
3.95327	0.00000	1685.60600
3.95709	0.00000	1680.87100
3.96091	0.00000	1680.87100
3.96473	0.00000	1680.87100
3.96856	0.00000	1680.87100
3.97238	0.00000	1680.87100
3.97620	0.00000	1680.87100
3.98003	0.00000	1680.87100
3.98385	0.00000	1693.23900
3.98768	0.00000	1693.23900
3.99150	0.00000	1693.23900
3.99533	0.00000	1693.23900
3.99915	0.00000	1690.34000
4.00298	0.00000	1690.34000
4.00680	0.00000	1690.34000
4.01062	0.00000	1698.02300
4.01445	0.00000	1698.02300
4.01827	0.00000	1698.02300
4.02209	0.00000	1698.02300
4.02591	0.00000	1685.60600
4.02973	0.00000	1685.60600
4.03356	0.00000	1685.60600
4.03738	0.00000	1680.87100
4.04119	0.00000	1680.87100
4.04501	0.00000	1680.87100
4.04883	0.00000	1680.87100
4.05265	0.00000	1680.87100
4.05648	0.00000	1680.87100
4.06030	0.00000	1680.87100
4.06412	0.00000	1680.87100
4.06795	0.00000	1680.87100
4.07177	0.00000	1680.87100
4.07558	0.00000	1676.13600
4.07940	0.00000	1676.13600
4.08322	0.00000	1676.13600
4.08704	0.00000	1676.13600
4.09087	0.00000	1673.43700
4.09465	0.00000	1673.43700
4.09847	0.00000	1673.43700
4.10229	0.00000	1676.13600
4.10611	0.00000	1676.13600
4.10994	0.00000	1676.13600
4.11377	0.00000	1676.13600
4.11760	0.00000	1685.60600
4.12142	0.00000	1685.60600
4.12524	0.00000	1685.60600
4.12906	0.00000	1698.02300
4.13288	0.00000	1698.02300
4.13669	0.00000	1698.02300
4.14051	0.00000	1698.02300
4.14433	0.00000	1698.02300
4.14815	0.00000	1698.02300
4.15198	0.00000	1698.02300
4.15578	0.00000	1685.60600
4.15961	0.00000	1685.60600
4.16343	0.00000	1685.60600
4.16725	0.00000	1680.87100
4.17107	0.00000	1680.87100
4.17490	0.00000	1680.87100
4.17871	0.00000	1680.87100
4.18254	0.00000	1685.60600
4.18636	0.00000	1685.60600
4.19019	0.00000	1685.60600
4.19401	0.00000	1676.13600
4.19784	0.00000	1676.13600
4.20166	0.00000	1676.13600
4.20548	0.00000	1676.13600
4.20931	0.00000	1685.60600
4.21313	0.00000	1685.60600
4.21695	0.00000	1685.60600
4.22077	0.00000	1676.13600
4.22460	0.00000	1676.13600
4.22842	0.00000	1676.13600
4.23224	0.00000	1676.13600
4.23607	0.00000	1676.13600
4.23989	0.00000	1676.13600
4.24371	0.00000	1676.13600
4.24753	0.00000	1685.60600
4.25136	0.00000	1685.60600
4.25518	0.00000	1685.60600
4.25902	0.00000	1693.23900
4.26283	0.00000	1693.23900
4.26665	0.00000	1693.23900
4.27047	0.00000	1693.23900
4.27429	0.00000	1690.34000
4.27811	0.00000	1690.34000
4.28193	0.00000	1690.34000
4.28575	0.00000	1671.40100
4.28958	0.00000	1671.40100
4.29341	0.00000	1671.40100
4.29724	0.00000	1671.40100
4.30106	0.00000	1668.75000
4.30488	0.00000	1668.75000
4.30871	0.00000	1668.75000
4.31253	0.00000	1676.13600
4.31635	0.00000	1676.13600
4.32017	0.00000	1676.13600
4.32399	0.00000	1676.13600
4.32782	0.00000	1676.13600
4.33164	0.00000	1676.13600
4.33545	0.00000	1676.13600
4.33928	0.00000	1673.43700
4.34310	0.00000	1673.43700
4.34692	0.00000	1673.43700
4.35074	0.00000	1676.13600
4.35456	0.00000	1676.13600
4.35838	0.00000	1676.13600
4.36220	0.00000	1676.13600
4.36602	0.00000	1690.34000
4.36984	0.00000	1690.34000
4.37366	0.00000	1690.34000
4.37748	0.00000	1693.23900
4.38130	0.00000	1693.23900
4.38512	0.00000	1693.23900
4.38894	0.00000	1693.23900
4.39276	0.00000	1680.87100
4.39658	0.00000	1680.87100
4.40040	0.00000	1680.87100
4.40422	0.00000	1680.87100
4.40804	0.00000	1680.87100
4.41186	0.00000	1680.87100
4.41568	0.00000	1676.13600
4.41951	0.00000	1676.13600
4.42333	0.00000	1676.13600
4.42716	0.00000	1676.13600
4.43098	0.00000	1685.60600
4.43480	0.00000	1685.60600
4.43862	0.00000	1685.60600
4.44245	0.00000	1676.13600
4.44628	0.00000	1676.13600
4.45010	0.00000	1676.13600
4.45392	0.00000	1676.13600
4.45773	0.00000	1668.75000
4.46156	0.00000	1668.75000
4.46539	0.00000	1668.75000
4.46921	0.00000	1676.13600
4.47304	0.00000	1676.13600
4.47687	0.00000	1676.13600
4.48069	0.00000	1676.13600
4.48452	0.00000	1680.87100
4.48835	0.00000	1680.87100
4.49216	0.00000	1680.87100
4.49598	0.00000	1693.23900
4.49981	0.00000	1693.23900
4.50363	0.00000	1693.23900
4.50745	0.00000	1693.23900
4.51128	0.00000	1693.23900
4.51510	0.00000	1693.23900
4.51891	0.00000	1693.23900
4.52275	0.00000	1690.34000
4.52657	0.00000	1690.34000
4.53040	0.00000	1690.34000
4.53423	0.00000	1671.40100
4.53805	0.00000	1671.40100
4.54188	0.00000	1671.40100
4.54569	0.00000	1671.40100
4.54951	0.00000	1673.43700
4.55333	0.00000	1673.43700
4.55715	0.00000	1673.43700
4.56097	0.00000	1676.13600
4.56479	0.00000	1676.13600
4.56861	0.00000	1676.13600
4.57243	0.00000	1676.13600
4.57625	0.00000	1676.13600
4.58007	0.00000	1676.13600
4.58389	0.00000	1676.13600
4.58771	0.00000	1680.87100
4.59152	0.00000	1680.87100
4.59535	0.00000	1680.87100
4.59916	0.00000	1676.13600
4.60298	0.00000	1676.13600
4.60681	0.00000	1676.13600
4.61063	0.00000	1676.13600
4.61446	0.00000	1685.60600
4.61828	0.00000	1685.60600
4.62210	0.00000	1685.60600
4.62592	0.00000	1693.23900
4.62974	0.00000	1693.23900
4.63356	0.00000	1693.23900
4.63738	0.00000	1693.23900
4.64120	0.00000	1685.60600
4.64503	0.00000	1685.60600
4.64885	0.00000	1685.60600
4.65267	0.00000	1676.13600
4.65650	0.00000	1676.13600
4.66032	0.00000	1676.13600
4.66414	0.00000	1676.13600
4.66796	0.00000	1676.13600
4.67178	0.00000	1676.13600
4.67561	0.00000	1676.13600
4.67942	0.00000	1676.13600
4.68324	0.00000	1676.13600
4.68706	0.00000	1676.13600
4.69088	0.00000	1680.87100
4.69471	0.00000	1680.87100
4.69853	0.00000	1680.87100
4.70235	0.00000	1680.87100
4.70617	0.00000	1685.60600
4.70999	0.00000	1685.60600
4.71381	0.00000	1685.60600
4.71763	0.00000	1688.45600
4.72146	0.00000	1688.45600
4.72528	0.00000	1688.45600
4.72911	0.00000	1688.45600
4.73293	0.00000	1690.34000
4.73675	0.00000	1690.34000
4.74058	0.00000	1690.34000
4.74441	0.00000	1671.40100
4.74823	0.00000	1671.40100
4.75205	0.00000	1671.40100
4.75587	0.00000	1676.13600
4.75969	0.00000	1676.13600
4.76352	0.00000	1676.13600
4.76734	0.00000	1676.13600
4.77116	0.00000	1680.87100
4.77498	0.00000	1680.87100
4.77880	0.00000	1680.87100
4.78263	0.00000	1676.13600
4.78646	0.00000	1676.13600
4.79028	0.00000	1676.13600
4.79411	0.00000	1676.13600
4.79794	0.00000	1668.75000
4.80176	0.00000	1668.75000
4.80558	0.00000	1668.75000
4.80941	0.00000	1676.13600
4.81324	0.00000	1676.13600
4.81705	0.00000	1676.13600
4.82087	0.00000	1676.13600
4.82470	0.00000	1680.87100
4.82852	0.00000	1680.87100
4.83235	0.00000	1680.87100
4.83618	0.00000	1698.02300
4.84000	0.00000	1698.02300
4.84382	0.00000	1698.02300
4.84764	0.00000	1698.02300
4.85146	0.00000	1698.02300
4.85528	0.00000	1698.02300
4.85910	0.00000	1698.02300
4.86292	0.00000	1676.13600
4.86676	0.00000	1676.13600
4.87058	0.00000	1676.13600
4.87440	0.00000	1676.13600
4.87822	0.00000	1676.13600
4.88204	0.00000	1676.13600
4.88586	0.00000	1676.13600
4.88968	0.00000	1668.75000
4.89350	0.00000	1668.75000
4.89732	0.00000	1668.75000
4.90114	0.00000	1676.13600
4.90496	0.00000	1676.13600
4.90878	0.00000	1676.13600
4.91261	0.00000	1676.13600
4.91643	0.00000	1680.87100
4.92027	0.00000	1680.87100
4.92408	0.00000	1680.87100
4.92791	0.00000	1693.23900
4.93173	0.00000	1693.23900
4.93555	0.00000	1693.23900
4.93936	0.00000	1693.23900
4.94318	0.00000	1693.23900
4.94701	0.00000	1693.23900
4.95083	0.00000	1693.23900
4.95465	0.00000	1680.87100
4.95848	0.00000	1680.87100
4.96230	0.00000	1680.87100
4.96613	0.00000	1671.40100
4.96996	0.00000	1671.40100
4.97379	0.00000	1671.40100
4.97761	0.00000	1671.40100
4.98143	0.00000	1668.75000
4.98525	0.00000	1668.75000
4.98908	0.00000	1668.75000
4.99289	0.00000	1671.40100
4.99672	0.00000	1671.40100
5.00108	0.00000	1671.40100
5.00494	0.00000	1676.13600
5.00878	0.00000	1676.13600
5.01262	0.00000	1676.13600
5.01646	0.00000	1676.13600
5.02030	0.00000	1768.25400
5.02413	0.00000	1768.25400
5.02797	0.00000	1768.25400
5.03184	0.00000	2180.12900
5.03569	0.00000	2180.12900
5.03953	0.00000	2180.12900
5.04336	0.00000	2180.12900
5.04719	0.00000	2508.44500
5.05103	0.00000	2508.44500
5.05487	0.00000	2508.44500
5.05870	0.00000	2508.44500
5.06253	0.00000	2840.54500
5.06636	0.00000	2840.54500
5.07019	0.00000	2840.54500
5.07402	0.00000	2840.54500
5.07784	0.00000	2840.54500
5.08168	0.00000	3160.28200
5.08552	0.00000	3160.28200
5.08934	0.00000	3160.28200
5.09317	0.00000	3160.28200
5.09701	0.00000	3468.75000
5.10085	0.00000	3468.75000
5.10468	0.00000	3468.75000
5.10851	0.00000	3468.75000
5.11234	0.00000	3468.75000
5.11618	0.00000	3763.48900
5.12002	0.00000	3763.48900
5.12386	0.00000	3763.48900
5.12768	0.00000	3763.48900
5.13153	0.00000	3763.48900
5.13536	0.00000	4078.44400
5.13919	0.00000	4078.44400
5.14303	0.00000	4078.44400
5.14685	0.00000	4078.44400
5.15065	0.00000	4078.44400
5.15449	0.00000	4368.99000
5.15833	0.00000	4368.99000
5.16217	0.00000	4368.99000
5.16600	0.00000	4368.99000
5.16983	0.00000	4368.99000
5.17366	0.00000	4368.99000
5.17750	0.00000	4642.59000
5.18134	0.00000	4642.59000
5.18517	0.00000	4642.59000
5.18902	0.00000	4642.59000
5.19285	0.00000	4642.59000
5.19668	0.00000	4642.59000
5.20050	0.00000	4891.41900
5.20433	0.00000	4891.41900
5.20816	0.00000	4891.41900
5.21201	0.00000	4891.41900
5.21584	0.00000	4891.41900
5.21968	0.00000	4891.41900
5.22351	0.00000	5153.74300
5.22735	0.00000	5153.74300
5.23118	0.00000	5153.74300
5.23502	0.00000	5153.74300
5.23885	0.00000	5153.74300
5.24265	0.00000	5153.74300
5.24650	0.00000	5153.74300
5.25032	0.00000	5331.43900
5.25416	0.00000	5331.43900
5.25800	0.00000	5331.43900
5.26184	0.00000	5331.43900
5.26567	0.00000	5331.43900
5.26950	0.00000	5331.43900
5.27333	0.00000	5331.43900
5.27718	0.00000	5464.93900
5.28101	0.00000	5464.93900
5.28485	0.00000	5464.93900
5.28869	0.00000	5464.93900
5.29251	0.00000	5464.93900
5.29635	0.00000	5464.93900
5.30018	0.00000	5464.93900
5.30401	0.00000	5540.17800
5.30785	0.00000	5540.17800
5.31169	0.00000	5540.17800
5.31552	0.00000	5540.17800
5.31937	0.00000	5540.17800
5.32321	0.00000	5540.17800
5.32705	0.00000	5540.17800
5.33089	0.00000	5594.19000
5.33473	0.00000	5594.19000
5.33857	0.00000	5594.19000
5.34241	0.00000	5594.19000
5.34625	0.00000	5594.19000
5.35009	0.00000	5594.19000
5.35393	0.00000	5594.19000
5.35777	0.00000	5627.18000
5.36159	0.00000	5627.18000
5.36543	0.00000	5627.18000
5.36927	0.00000	5627.18000
5.37311	0.00000	5627.18000
5.37695	0.00000	5627.18000
5.38080	0.00000	5627.18000
5.38463	0.00000	5627.18000
5.38847	0.00000	5651.04100
5.39231	0.00000	5651.04100
5.39615	0.00000	5651.04100
5.39999	0.00000	5651.04100
5.40384	0.00000	5651.04100
5.40768	0.00000	5651.04100
5.41151	0.00000	5651.04100
5.41534	0.00000	5659.56200
5.41919	0.00000	5659.56200
5.42302	0.00000	5659.56200
5.42686	0.00000	5659.56200
5.43065	0.00000	5659.56200
5.43450	0.00000	5659.56200
5.43834	0.00000	5659.56200
5.44218	0.00000	5659.56200
5.44601	0.00000	5685.48400
5.44984	0.00000	5685.48400
5.45368	0.00000	5685.48400
5.45752	0.00000	5685.48400
5.46137	0.00000	5685.48400
5.46521	0.00000	5685.48400
5.46904	0.00000	5685.48400
5.47288	0.00000	5681.16300
5.47671	0.00000	5681.16300
5.48056	0.00000	5681.16300
5.48440	0.00000	5681.16300
5.48824	0.00000	5681.16300
5.49207	0.00000	5681.16300
5.49590	0.00000	5681.16300
5.49973	0.00000	5687.64400
5.50357	0.00000	5687.64400
5.50741	0.00000	5687.64400
5.51125	0.00000	5687.64400
5.51509	0.00000	5687.64400
5.51892	0.00000	5687.64400
5.52277	0.00000	5687.64400
5.52661	0.00000	5687.64400
5.53045	0.00000	5669.94800
5.53430	0.00000	5669.94800
5.53814	0.00000	5669.94800
5.54199	0.00000	5669.94800
5.54582	0.00000	5669.94800
5.54966	0.00000	5669.94800
5.55350	0.00000	5669.94800
5.55733	0.00000	5668.00500
5.56117	0.00000	5668.00500
5.56501	0.00000	5668.00500
5.56885	0.00000	5668.00500
5.57269	0.00000	5668.00500
5.57653	0.00000	5668.00500
5.58037	0.00000	5668.00500
5.58421	0.00000	5691.96400
5.58807	0.00000	5691.96400
5.59191	0.00000	5691.96400
5.59576	0.00000	5691.96400
5.59960	0.00000	5691.96400
5.60344	0.00000	5691.96400
5.60728	0.00000	5691.96400
5.61112	0.00000	5691.96400
5.61497	0.00000	5693.80700
5.61881	0.00000	5693.80700
5.62265	0.00000	5693.80700
5.62650	0.00000	5693.80700
5.63035	0.00000	5693.80700
5.63419	0.00000	5693.80700
5.63804	0.00000	5693.80700
5.64188	0.00000	5694.12400
5.64571	0.00000	5694.12400
5.64955	0.00000	5694.12400
5.65339	0.00000	5694.12400
5.65723	0.00000	5694.12400
5.66107	0.00000	5694.12400
5.66491	0.00000	5694.12400
5.66874	0.00000	5694.12400
5.67256	0.00000	5694.12400
5.67641	0.00000	5694.12400
5.68025	0.00000	5694.12400
5.68409	0.00000	5694.12400
5.68793	0.00000	5694.12400
5.69177	0.00000	5694.12400
5.69562	0.00000	5694.12400
5.69946	0.00000	5694.12400
5.70330	0.00000	5694.12400
5.70714	0.00000	5694.12400
5.71099	0.00000	5694.12400
5.71482	0.00000	5694.12400
5.71865	0.00000	5694.12400
5.72249	0.00000	5694.12400
5.72633	0.00000	5691.96400
5.73016	0.00000	5691.96400
5.73401	0.00000	5691.96400
5.73785	0.00000	5691.96400
5.74170	0.00000	5691.96400
5.74554	0.00000	5691.96400
5.74938	0.00000	5691.96400
5.75322	0.00000	5691.96400
5.75706	0.00000	5695.95700
5.76089	0.00000	5695.95700
5.76474	0.00000	5695.95700
5.76858	0.00000	5695.95700
5.77242	0.00000	5695.95700
5.77625	0.00000	5695.95700
5.78010	0.00000	5695.95700
5.78394	0.00000	5689.80400
5.78778	0.00000	5689.80400
5.79162	0.00000	5689.80400
5.79547	0.00000	5689.80400
5.79930	0.00000	5689.80400
5.80314	0.00000	5689.80400
5.80698	0.00000	5689.80400
5.81082	0.00000	5661.55400
5.81465	0.00000	5661.55400
5.81850	0.00000	5661.55400
5.82234	0.00000	5661.55400
5.82618	0.00000	5661.55400
5.83003	0.00000	5661.55400
5.83388	0.00000	5661.55400
5.83772	0.00000	5661.55400
5.84156	0.00000	5665.66700
5.84540	0.00000	5665.66700
5.84925	0.00000	5665.66700
5.85308	0.00000	5665.66700
5.85692	0.00000	5665.66700
5.86076	0.00000	5665.66700
5.86461	0.00000	5665.66700
5.86844	0.00000	5685.48400
5.87227	0.00000	5685.48400
5.87611	0.00000	5685.48400
5.87995	0.00000	5685.48400
5.88378	0.00000	5685.48400
5.88762	0.00000	5685.48400
5.89147	0.00000	5685.48400
5.89531	0.00000	5685.48400
5.89913	0.00000	5685.48400
5.90297	0.00000	5685.48400
5.90681	0.00000	5685.48400
5.91064	0.00000	5685.48400
5.91448	0.00000	5685.48400
5.91831	0.00000	5685.48400
5.92215	0.00000	5685.48400
5.92599	0.00000	5700.60500
5.92983	0.00000	5700.60500
5.93368	0.00000	5700.60500
5.93751	0.00000	5700.60500
5.94135	0.00000	5700.60500
5.94519	0.00000	5700.60500
5.94903	0.00000	5700.60500
5.95288	0.00000	5689.80400
5.95672	0.00000	5689.80400
5.96055	0.00000	5689.80400
5.96439	0.00000	5689.80400
5.96823	0.00000	5689.80400
5.97208	0.00000	5689.80400
5.97591	0.00000	5689.80400
5.97974	0.00000	5689.80400
5.98358	0.00000	5659.24600
5.98742	0.00000	5659.24600
5.99127	0.00000	5659.24600
5.99511	0.00000	5659.24600
5.99896	0.00000	5659.24600
6.00280	0.00000	5659.24600
6.00664	0.00000	5659.24600
6.01048	0.00000	5683.32300
6.01432	0.00000	5683.32300
6.01816	0.00000	5683.32300
6.02199	0.00000	5683.32300
6.02583	0.00000	5683.32300
6.02968	0.00000	5683.32300
6.03353	0.00000	5683.32300
6.03737	0.00000	5681.16300
6.04121	0.00000	5681.16300
6.04506	0.00000	5681.16300
6.04889	0.00000	5681.16300
6.05272	0.00000	5681.16300
6.05656	0.00000	5681.16300
6.06041	0.00000	5681.16300
6.06425	0.00000	5681.16300
6.06809	0.00000	5661.38600
6.07193	0.00000	5661.38600
6.07577	0.00000	5661.38600
6.07961	0.00000	5661.38600
6.08345	0.00000	5661.38600
6.08729	0.00000	5661.38600
6.09112	0.00000	5661.38600
6.09496	0.00000	5681.16300
6.09880	0.00000	5681.16300
6.10265	0.00000	5681.16300
6.10649	0.00000	5681.16300
6.11033	0.00000	5681.16300
6.11416	0.00000	5681.16300
6.11799	0.00000	5681.16300
6.12185	0.00000	5652.95300
6.12572	0.00000	5652.95300
6.12956	0.00000	5652.95300
6.13340	0.00000	5652.95300
6.13725	0.00000	5652.95300
6.14108	0.00000	5652.95300
6.14492	0.00000	5652.95300
6.14876	0.00000	5652.95300
6.15260	0.00000	5680.90600
6.15644	0.00000	5680.90600
6.16030	0.00000	5680.90600
6.16415	0.00000	5680.90600
6.16801	0.00000	5680.90600
6.17184	0.00000	5680.90600
6.17568	0.00000	5680.90600
6.17951	0.00000	5679.00300
6.18335	0.00000	5679.00300
6.18719	0.00000	5679.00300
6.19102	0.00000	5679.00300
6.19486	0.00000	5679.00300
6.19870	0.00000	5679.00300
6.20253	0.00000	5679.00300
6.20637	0.00000	5681.16300
6.21019	0.00000	5681.16300
6.21404	0.00000	5681.16300
6.21789	0.00000	5681.16300
6.22173	0.00000	5681.16300
6.22557	0.00000	5681.16300
6.22941	0.00000	5681.16300
6.23324	0.00000	5681.16300
6.23708	0.00000	5663.70400
6.24093	0.00000	5663.70400
6.24476	0.00000	5663.70400
6.24861	0.00000	5663.70400
6.25244	0.00000	5663.70400
6.25629	0.00000	5663.70400
6.26014	0.00000	5663.70400
6.26398	0.00000	5679.00300
6.26782	0.00000	5679.00300
6.27166	0.00000	5679.00300
6.27550	0.00000	5679.00300
6.27934	0.00000	5679.00300
6.28318	0.00000	5679.00300
6.28702	0.00000	5679.00300
6.29087	0.00000	5679.00300
6.29465	0.00000	5668.00500
6.29849	0.00000	5668.00500
6.30233	0.00000	5668.00500
6.30618	0.00000	5668.00500
6.31002	0.00000	5668.00500
6.31386	0.00000	5668.00500
6.31771	0.00000	5668.00500
6.32155	0.00000	5681.16300
6.32539	0.00000	5681.16300
6.32922	0.00000	5681.16300
6.33307	0.00000	5681.16300
6.33691	0.00000	5681.16300
6.34074	0.00000	5681.16300
6.34458	0.00000	5681.16300
6.34843	0.00000	5672.52300
6.35227	0.00000	5672.52300
6.35611	0.00000	5672.52300
6.35995	0.00000	5672.52300
6.36379	0.00000	5672.52300
6.36763	0.00000	5672.52300
6.37147	0.00000	5672.52300
6.37531	0.00000	5672.52300
6.37915	0.00000	5685.20600
6.38298	0.00000	5685.20600
6.38683	0.00000	5685.20600
6.39065	0.00000	5685.20600
6.39448	0.00000	5685.20600
6.39832	0.00000	5685.20600
6.40215	0.00000	5685.20600
6.40600	0.00000	5676.84400
6.40984	0.00000	5676.84400
6.41368	0.00000	5676.84400
6.41752	0.00000	5676.84400
6.42138	0.00000	5676.84400
6.42520	0.00000	5676.84400
6.42904	0.00000	5676.84400
6.43289	0.00000	5670.36300
6.43676	0.00000	5670.36300
6.44059	0.00000	5670.36300
6.44443	0.00000	5670.36300
6.44827	0.00000	5670.36300
6.45211	0.00000	5670.36300
6.45594	0.00000	5670.36300
6.45978	0.00000	5670.36300
6.46361	0.00000	5680.90600
6.46746	0.00000	5680.90600
6.47130	0.00000	5680.90600
6.47516	0.00000	5680.90600
6.47899	0.00000	5680.90600
6.48283	0.00000	5680.90600
6.48665	0.00000	5680.90600
6.49049	0.00000	5674.68300
6.49434	0.00000	5674.68300
6.49819	0.00000	5674.68300
6.50203	0.00000	5674.68300
6.50588	0.00000	5674.68300
6.50971	0.00000	5674.68300
6.51356	0.00000	5674.68300
6.51740	0.00000	5672.52300
6.52124	0.00000	5672.52300
6.52507	0.00000	5672.52300
6.52892	0.00000	5672.52300
6.53275	0.00000	5672.52300
6.53660	0.00000	5672.52300
6.54045	0.00000	5672.52300
6.54428	0.00000	5672.52300
6.54812	0.00000	5689.80400
6.55196	0.00000	5689.80400
6.55578	0.00000	5689.80400
6.55963	0.00000	5689.80400
6.56347	0.00000	5689.80400
6.56731	0.00000	5689.80400
6.57114	0.00000	5689.80400
6.57499	0.00000	5674.68300
6.57884	0.00000	5674.68300
6.58265	0.00000	5674.68300
6.58648	0.00000	5674.68300
6.59032	0.00000	5674.68300
6.59416	0.00000	5674.68300
6.59800	0.00000	5674.68300
6.60184	0.00000	5674.68300
6.60569	0.00000	5685.48400
6.60953	0.00000	5685.48400
6.61336	0.00000	5685.48400
6.61719	0.00000	5685.48400
6.62103	0.00000	5685.48400
6.62488	0.00000	5685.48400
6.62872	0.00000	5685.48400
6.63255	0.00000	5670.36300
6.63639	0.00000	5670.36300
6.64023	0.00000	5670.36300
6.64407	0.00000	5670.36300
6.64791	0.00000	5670.36300
6.65175	0.00000	5670.36300
6.65559	0.00000	5670.36300
6.65943	0.00000	5672.52300
6.66327	0.00000	5672.52300
6.66712	0.00000	5672.52300
6.67096	0.00000	5672.52300
6.67479	0.00000	5672.52300
6.67862	0.00000	5672.52300
6.68248	0.00000	5672.52300
6.68632	0.00000	5672.52300
6.69016	0.00000	5689.80400
6.69399	0.00000	5689.80400
6.69783	0.00000	5689.80400
6.70167	0.00000	5689.80400
6.70551	0.00000	5689.80400
6.70935	0.00000	5689.80400
6.71319	0.00000	5689.80400
6.71703	0.00000	5670.36300
6.72087	0.00000	5670.36300
6.72471	0.00000	5670.36300
6.72855	0.00000	5670.36300
6.73239	0.00000	5670.36300
6.73623	0.00000	5670.36300
6.74007	0.00000	5670.36300
6.74391	0.00000	5670.36300
6.74775	0.00000	5670.36300
6.75159	0.00000	5670.36300
6.75543	0.00000	5670.36300
6.75927	0.00000	5670.36300
6.76312	0.00000	5670.36300
6.76696	0.00000	5670.36300
6.77081	0.00000	5670.36300
6.77465	0.00000	5648.54400
6.77848	0.00000	5648.54400
6.78232	0.00000	5648.54400
6.78616	0.00000	5648.54400
6.79000	0.00000	5648.54400
6.79384	0.00000	5648.54400
6.79767	0.00000	5648.54400
6.80151	0.00000	5674.68300
6.80534	0.00000	5674.68300
6.80917	0.00000	5674.68300
6.81302	0.00000	5674.68300
6.81686	0.00000	5674.68300
6.82070	0.00000	5674.68300
6.82454	0.00000	5674.68300
6.82838	0.00000	5666.04200
6.83222	0.00000	5666.04200
6.83607	0.00000	5666.04200
6.83992	0.00000	5666.04200
6.84375	0.00000	5666.04200
6.84760	0.00000	5666.04200
6.85143	0.00000	5666.04200
6.85528	0.00000	5666.04200
6.85912	0.00000	5646.40400
6.86296	0.00000	5646.40400
6.86680	0.00000	5646.40400
6.87064	0.00000	5646.40400
6.87448	0.00000	5646.40400
6.87832	0.00000	5646.40400
6.88217	0.00000	5646.40400
6.88600	0.00000	5666.04200
6.88984	0.00000	5666.04200
6.89367	0.00000	5666.04200
6.89751	0.00000	5666.04200
6.90134	0.00000	5666.04200
6.90518	0.00000	5666.04200
6.90902	0.00000	5666.04200
6.91286	0.00000	5668.20200
6.91672	0.00000	5668.20200
6.92056	0.00000	5668.20200
6.92439	0.00000	5668.20200
6.92823	0.00000	5668.20200
6.93206	0.00000	5668.20200
6.93590	0.00000	5668.20200
6.93974	0.00000	5668.20200
6.94357	0.00000	5681.16300
6.94741	0.00000	5681.16300
6.95124	0.00000	5681.16300
6.95509	0.00000	5681.16300
6.95893	0.00000	5681.16300
6.96277	0.00000	5681.16300
6.96662	0.00000	5681.16300
6.97046	0.00000	5666.04200
6.97430	0.00000	5666.04200
6.97814	0.00000	5666.04200
6.98198	0.00000	5666.04200
6.98583	0.00000	5666.04200
6.98967	0.00000	5666.04200
6.99351	0.00000	5666.04200
6.99736	0.00000	5670.36300
7.00118	0.00000	5670.36300
7.00503	0.00000	5670.36300
7.00887	0.00000	5670.36300
7.01272	0.00000	5670.36300
7.01656	0.00000	5670.36300
7.02040	0.00000	5670.36300
7.02425	0.00000	5670.36300
7.02809	0.00000	5670.36300
7.03193	0.00000	5670.36300
7.03577	0.00000	5670.36300
7.03962	0.00000	5670.36300
7.04345	0.00000	5670.36300
7.04730	0.00000	5670.36300
7.05114	0.00000	5670.36300
7.05497	0.00000	5694.44500
7.05881	0.00000	5694.44500
7.06264	0.00000	5694.44500
7.06648	0.00000	5694.44500
7.07034	0.00000	5694.44500
7.07418	0.00000	5694.44500
7.07801	0.00000	5694.44500
7.08184	0.00000	5694.44500
7.08567	0.00000	5679.00300
7.08951	0.00000	5679.00300
7.09335	0.00000	5679.00300
7.09718	0.00000	5679.00300
7.10102	0.00000	5679.00300
7.10485	0.00000	5679.00300
7.10870	0.00000	5679.00300
7.11254	0.00000	5670.36300
7.11637	0.00000	5670.36300
7.12021	0.00000	5670.36300
7.12405	0.00000	5670.36300
7.12789	0.00000	5670.36300
7.13174	0.00000	5670.36300
7.13558	0.00000	5670.36300
7.13942	0.00000	5668.20200
7.14326	0.00000	5668.20200
7.14709	0.00000	5668.20200
7.15092	0.00000	5668.20200
7.15476	0.00000	5668.20200
7.15861	0.00000	5668.20200
7.16245	0.00000	5668.20200
7.16629	0.00000	5668.20200
7.17012	0.00000	5663.70400
7.17396	0.00000	5663.70400
7.17779	0.00000	5663.70400
7.18163	0.00000	5663.70400
7.18546	0.00000	5663.70400
7.18930	0.00000	5663.70400
7.19314	0.00000	5663.70400
7.19697	0.00000	5668.20200
7.20081	0.00000	5668.20200
7.20464	0.00000	5668.20200
7.20849	0.00000	5668.20200
7.21233	0.00000	5668.20200
7.21616	0.00000	5668.20200
7.22001	0.00000	5668.20200
7.22385	0.00000	5690.10400
7.22769	0.00000	5690.10400
7.23152	0.00000	5690.10400
7.23537	0.00000	5690.10400
7.23921	0.00000	5690.10400
7.24305	0.00000	5690.10400
7.24689	0.00000	5690.10400
7.25073	0.00000	5690.10400
7.25457	0.00000	5676.60500
7.25840	0.00000	5676.60500
7.26224	0.00000	5676.60500
7.26608	0.00000	5676.60500
7.26993	0.00000	5676.60500
7.27377	0.00000	5676.60500
7.27760	0.00000	5676.60500
7.28144	0.00000	5663.88300
7.28527	0.00000	5663.88300
7.28911	0.00000	5663.88300
7.29294	0.00000	5663.88300
7.29678	0.00000	5663.88300
7.30062	0.00000	5663.88300
7.30445	0.00000	5663.88300
7.30829	0.00000	5687.93400
7.31211	0.00000	5687.93400
7.31596	0.00000	5687.93400
7.31979	0.00000	5687.93400
7.32364	0.00000	5687.93400
7.32748	0.00000	5687.93400
7.33131	0.00000	5687.93400
7.33515	0.00000	5687.93400
7.33900	0.00000	5670.15500
7.34284	0.00000	5670.15500
7.34665	0.00000	5670.15500
7.35049	0.00000	5670.15500
7.35433	0.00000	5670.15500
7.35817	0.00000	5670.15500
7.36201	0.00000	5670.15500
7.36584	0.00000	5659.56200
7.36968	0.00000	5659.56200
7.37352	0.00000	5659.56200
7.37737	0.00000	5659.56200
7.38121	0.00000	5659.56200
7.38504	0.00000	5659.56200
7.38887	0.00000	5659.56200
7.39271	0.00000	5661.72200
7.39652	0.00000	5661.72200
7.40036	0.00000	5661.72200
7.40420	0.00000	5661.72200
7.40804	0.00000	5661.72200
7.41189	0.00000	5661.72200
7.41575	0.00000	5661.72200
7.41959	0.00000	5661.72200
7.42342	0.00000	5650.80200
7.42726	0.00000	5650.80200
7.43111	0.00000	5650.80200
7.43495	0.00000	5650.80200
7.43880	0.00000	5650.80200
7.44265	0.00000	5650.80200
7.44649	0.00000	5650.80200
7.45032	0.00000	5666.04200
7.45416	0.00000	5666.04200
7.45799	0.00000	5666.04200
7.46184	0.00000	5666.04200
7.46568	0.00000	5666.04200
7.46951	0.00000	5666.04200
7.47334	0.00000	5666.04200
7.47719	0.00000	5659.56200
7.48101	0.00000	5659.56200
7.48485	0.00000	5659.56200
7.48869	0.00000	5659.56200
7.49255	0.00000	5659.56200
7.49638	0.00000	5659.56200
7.50023	0.00000	5659.56200
7.50408	0.00000	5659.56200
7.50793	0.00000	5668.20200
7.51176	0.00000	5668.20200
7.51561	0.00000	5668.20200
7.51944	0.00000	5668.20200
7.52328	0.00000	5668.20200
7.52713	0.00000	5668.20200
7.53097	0.00000	5668.20200
7.53481	0.00000	5661.72200
7.53865	0.00000	5661.72200
7.54248	0.00000	5661.72200
7.54634	0.00000	5661.72200
7.55018	0.00000	5661.72200
7.55402	0.00000	5661.72200
7.55785	0.00000	5661.72200
7.56169	0.00000	5679.25300
7.56553	0.00000	5679.25300
7.56937	0.00000	5679.25300
7.57321	0.00000	5679.25300
7.57705	0.00000	5679.25300
7.58089	0.00000	5679.25300
7.58474	0.00000	5679.25300
7.58857	0.00000	5679.25300
7.59241	0.00000	5663.88300
7.59624	0.00000	5663.88300
7.60010	0.00000	5663.88300
7.60393	0.00000	5663.88300
7.60778	0.00000	5663.88300
7.61162	0.00000	5663.88300
7.61546	0.00000	5663.88300
7.61929	0.00000	5659.56200
7.62312	0.00000	5659.56200
7.62696	0.00000	5659.56200
7.63081	0.00000	5659.56200
7.63465	0.00000	5659.56200
7.63848	0.00000	5659.56200
7.64232	0.00000	5659.56200
7.64617	0.00000	5659.56200
7.65000	0.00000	5670.36300
7.65383	0.00000	5670.36300
7.65768	0.00000	5670.36300
7.66153	0.00000	5670.36300
7.66537	0.00000	5670.36300
7.66922	0.00000	5670.36300
7.67305	0.00000	5670.36300
7.67690	0.00000	5655.24100
7.68074	0.00000	5655.24100
7.68458	0.00000	5655.24100
7.68842	0.00000	5655.24100
7.69226	0.00000	5655.24100
7.69611	0.00000	5655.24100
7.69995	0.00000	5655.24100
7.70378	0.00000	5659.56200
7.70762	0.00000	5659.56200
7.71146	0.00000	5659.56200
7.71531	0.00000	5659.56200
7.71914	0.00000	5659.56200
7.72300	0.00000	5659.56200
7.72684	0.00000	5659.56200
7.73065	0.00000	5659.56200
7.73448	0.00000	5670.36300
7.73833	0.00000	5670.36300
7.74217	0.00000	5670.36300
7.74602	0.00000	5670.36300
7.74986	0.00000	5670.36300
7.75371	0.00000	5670.36300
7.75755	0.00000	5670.36300
7.76139	0.00000	5685.76400
7.76522	0.00000	5685.76400
7.76907	0.00000	5685.76400
7.77292	0.00000	5685.76400
7.77676	0.00000	5685.76400
7.78060	0.00000	5685.76400
7.78443	0.00000	5685.76400
7.78827	0.00000	5683.59400
7.79211	0.00000	5683.59400
7.79596	0.00000	5683.59400
7.79980	0.00000	5683.59400
7.80363	0.00000	5683.59400
7.80747	0.00000	5683.59400
7.81131	0.00000	5683.59400
7.81516	0.00000	5683.59400
7.81899	0.00000	5681.16300
7.82283	0.00000	5681.16300
7.82665	0.00000	5681.16300
7.83051	0.00000	5681.16300
7.83435	0.00000	5681.16300
7.83819	0.00000	5681.16300
7.84202	0.00000	5681.16300
7.84587	0.00000	5687.93400
7.84971	0.00000	5687.93400
7.85354	0.00000	5687.93400
7.85739	0.00000	5687.93400
7.86126	0.00000	5687.93400
7.86512	0.00000	5687.93400
7.86896	0.00000	5687.93400
7.87280	0.00000	5659.56200
7.87664	0.00000	5659.56200
7.88048	0.00000	5659.56200
7.88432	0.00000	5659.56200
7.88815	0.00000	5659.56200
7.89199	0.00000	5659.56200
7.89583	0.00000	5659.56200
7.89968	0.00000	5659.56200
7.90351	0.00000	5657.25300
7.90735	0.00000	5657.25300
7.91119	0.00000	5657.25300
7.91503	0.00000	5657.25300
7.91887	0.00000	5657.25300
7.92271	0.00000	5657.25300
7.92656	0.00000	5657.25300
7.93039	0.00000	5657.40200
7.93423	0.00000	5657.40200
7.93806	0.00000	5657.40200
7.94192	0.00000	5657.40200
7.94576	0.00000	5657.40200
7.94959	0.00000	5657.40200
7.95343	0.00000	5657.40200
7.95728	0.00000	5663.88300
7.96115	0.00000	5663.88300
7.96500	0.00000	5663.88300
7.96885	0.00000	5663.88300
7.97269	0.00000	5663.88300
7.97652	0.00000	5663.88300
7.98036	0.00000	5663.88300
7.98421	0.00000	5663.88300
7.98805	0.00000	5665.85400
7.99190	0.00000	5665.85400
7.99574	0.00000	5665.85400
7.99957	0.00000	5665.85400
8.00340	0.00000	5665.85400
8.00726	0.00000	5665.85400
8.01110	0.00000	5665.85400
8.01494	0.00000	5663.88300
8.01878	0.00000	5663.88300
8.02262	0.00000	5663.88300
8.02647	0.00000	5663.88300
8.03031	0.00000	5663.88300
8.03414	0.00000	5663.88300
8.03799	0.00000	5663.88300
8.04183	0.00000	5659.56200
8.04566	0.00000	5659.56200
8.04950	0.00000	5659.56200
8.05333	0.00000	5659.56200
8.05718	0.00000	5659.56200
8.06102	0.00000	5659.56200
8.06486	0.00000	5659.56200
8.06870	0.00000	5659.56200
8.07255	0.00000	5668.00500
8.07638	0.00000	5668.00500
8.08022	0.00000	5668.00500
8.08407	0.00000	5668.00500
8.08791	0.00000	5668.00500
8.09175	0.00000	5668.00500
8.09558	0.00000	5668.00500
8.09943	0.00000	5681.42300
8.10327	0.00000	5681.42300
8.10711	0.00000	5681.42300
8.11096	0.00000	5681.42300
8.11479	0.00000	5681.42300
8.11863	0.00000	5681.42300
8.12247	0.00000	5681.42300
8.12631	0.00000	5690.10400
8.13017	0.00000	5690.10400
8.13400	0.00000	5690.10400
8.13784	0.00000	5690.10400
8.14168	0.00000	5690.10400
8.14552	0.00000	5690.10400
8.14936	0.00000	5690.10400
8.15320	0.00000	5690.10400
8.15704	0.00000	5661.55400
8.16088	0.00000	5661.55400
8.16472	0.00000	5661.55400
8.16856	0.00000	5661.55400
8.17240	0.00000	5661.55400
8.17624	0.00000	5661.55400
8.18008	0.00000	5661.55400
8.18392	0.00000	5657.40200
8.18776	0.00000	5657.40200
8.19160	0.00000	5657.40200
8.19544	0.00000	5657.40200
8.19928	0.00000	5657.40200
8.20312	0.00000	5657.40200
8.20696	0.00000	5657.40200
8.21079	0.00000	5655.24100
8.21465	0.00000	5655.24100
8.21849	0.00000	5655.24100
8.22233	0.00000	5655.24100
8.22617	0.00000	5655.24100
8.23001	0.00000	5655.24100
8.23385	0.00000	5655.24100
8.23769	0.00000	5655.24100
8.24153	0.00000	5655.10300
8.24536	0.00000	5655.10300
8.24919	0.00000	5655.10300
8.25304	0.00000	5655.10300
8.25688	0.00000	5655.10300
8.26072	0.00000	5655.10300
8.26457	0.00000	5655.10300
8.26840	0.00000	5681.42300
8.27224	0.00000	5681.42300
8.27608	0.00000	5681.42300
8.27992	0.00000	5681.42300
8.28376	0.00000	5681.42300
8.28759	0.00000	5681.42300
8.29143	0.00000	5681.42300
8.29528	0.00000	5683.59400
8.29911	0.00000	5683.59400
8.30295	0.00000	5683.59400
8.30679	0.00000	5683.59400
8.31063	0.00000	5683.59400
8.31447	0.00000	5683.59400
8.31831	0.00000	5683.59400
8.32216	0.00000	5683.59400
8.32598	0.00000	5670.36300
8.32982	0.00000	5670.36300
8.33366	0.00000	5670.36300
8.33750	0.00000	5670.36300
8.34134	0.00000	5670.36300
8.34518	0.00000	5670.36300
8.34902	0.00000	5670.36300
8.35285	0.00000	5683.59400
8.35669	0.00000	5683.59400
8.36054	0.00000	5683.59400
8.36437	0.00000	5683.59400
8.36821	0.00000	5683.59400
8.37204	0.00000	5683.59400
8.37589	0.00000	5683.59400
8.37974	0.00000	5657.40200
8.38356	0.00000	5657.40200
8.38740	0.00000	5657.40200
8.39123	0.00000	5657.40200
8.39508	0.00000	5657.40200
8.39892	0.00000	5657.40200
8.40275	0.00000	5657.40200
8.40659	0.00000	5657.40200
8.41043	0.00000	5663.88300
8.41427	0.00000	5663.88300
8.41811	0.00000	5663.88300
8.42195	0.00000	5663.88300
8.42580	0.00000	5663.88300
8.42964	0.00000	5663.88300
8.43348	0.00000	5663.88300
8.43732	0.00000	5657.40200
8.44117	0.00000	5657.40200
8.44500	0.00000	5657.40200
8.44884	0.00000	5657.40200
8.45266	0.00000	5657.40200
8.45650	0.00000	5657.40200
8.46034	0.00000	5657.40200
8.46419	0.00000	5657.40200
8.46802	0.00000	5657.40200
8.47186	0.00000	5657.40200
8.47570	0.00000	5657.40200
8.47955	0.00000	5657.40200
8.48339	0.00000	5657.40200
8.48723	0.00000	5657.40200
8.49106	0.00000	5657.40200
8.49491	0.00000	5663.88300
8.49875	0.00000	5663.88300
8.50260	0.00000	5663.88300
8.50644	0.00000	5663.88300
8.51028	0.00000	5663.88300
8.51412	0.00000	5663.88300
8.51795	0.00000	5663.88300
8.52180	0.00000	5685.76400
8.52564	0.00000	5685.76400
8.52947	0.00000	5685.76400
8.53331	0.00000	5685.76400
8.53714	0.00000	5685.76400
8.54099	0.00000	5685.76400
8.54484	0.00000	5685.76400
8.54868	0.00000	5690.10400
8.55251	0.00000	5690.10400
8.55636	0.00000	5690.10400
8.56020	0.00000	5690.10400
8.56405	0.00000	5690.10400
8.56789	0.00000	5690.10400
8.57172	0.00000	5690.10400
8.57556	0.00000	5690.10400
8.57939	0.00000	5657.40200
8.58324	0.00000	5657.40200
8.58708	0.00000	5657.40200
8.59091	0.00000	5657.40200
8.59474	0.00000	5657.40200
8.59858	0.00000	5657.40200
8.60242	0.00000	5657.40200
8.60626	0.00000	5650.92200
8.61010	0.00000	5650.92200
8.61394	0.00000	5650.92200
8.61777	0.00000	5650.92200
8.62161	0.00000	5650.92200
8.62546	0.00000	5650.92200
8.62929	0.00000	5650.92200
8.63313	0.00000	5650.92200
8.63696	0.00000	5666.04200
8.64080	0.00000	5666.04200
8.64464	0.00000	5666.04200
8.64849	0.00000	5666.04200
8.65233	0.00000	5666.04200
8.65617	0.00000	5666.04200
8.66001	0.00000	5666.04200
8.66386	0.00000	5674.91300
8.66771	0.00000	5674.91300
8.67156	0.00000	5674.91300
8.67540	0.00000	5674.91300
8.67925	0.00000	5674.91300
8.68309	0.00000	5674.91300
8.68694	0.00000	5674.91300
8.69079	0.00000	5650.92200
8.69462	0.00000	5650.92200
8.69846	0.00000	5650.92200
8.70230	0.00000	5650.92200
8.70615	0.00000	5650.92200
8.71000	0.00000	5650.92200
8.71383	0.00000	5650.92200
8.71766	0.00000	5650.92200
8.72149	0.00000	5661.72200
8.72533	0.00000	5661.72200
8.72917	0.00000	5661.72200
8.73301	0.00000	5661.72200
8.73684	0.00000	5661.72200
8.74067	0.00000	5661.72200
8.74451	0.00000	5661.72200
8.74835	0.00000	5674.91300
8.75219	0.00000	5674.91300
8.75602	0.00000	5674.91300
8.75986	0.00000	5674.91300
8.76370	0.00000	5674.91300
8.76755	0.00000	5674.91300
8.77138	0.00000	5674.91300
8.77522	0.00000	5677.08300
8.77905	0.00000	5677.08300
8.78289	0.00000	5677.08300
8.78674	0.00000	5677.08300
8.79058	0.00000	5677.08300
8.79443	0.00000	5677.08300
8.79827	0.00000	5677.08300
8.80210	0.00000	5677.08300
8.80594	0.00000	5642.20100
8.80979	0.00000	5642.20100
8.81363	0.00000	5642.20100
8.81746	0.00000	5642.20100
8.82130	0.00000	5642.20100
8.82515	0.00000	5642.20100
8.82900	0.00000	5642.20100
8.83284	0.00000	5672.74200
8.83667	0.00000	5672.74200
8.84051	0.00000	5672.74200
8.84435	0.00000	5672.74200
8.84819	0.00000	5672.74200
8.85203	0.00000	5672.74200
8.85586	0.00000	5672.74200
8.85970	0.00000	5677.08300
8.86354	0.00000	5677.08300
8.86738	0.00000	5677.08300
8.87123	0.00000	5677.08300
8.87507	0.00000	5677.08300
8.87891	0.00000	5677.08300
8.88275	0.00000	5677.08300
8.88659	0.00000	5677.08300
8.89043	0.00000	5666.04200
8.89428	0.00000	5666.04200
8.89812	0.00000	5666.04200
8.90195	0.00000	5666.04200
8.90579	0.00000	5666.04200
8.90963	0.00000	5666.04200
8.91348	0.00000	5666.04200
8.91732	0.00000	5648.76100
8.92115	0.00000	5648.76100
8.92499	0.00000	5648.76100
8.92883	0.00000	5648.76100
8.93267	0.00000	5648.76100
8.93650	0.00000	5648.76100
8.94033	0.00000	5648.76100
8.94417	0.00000	5674.91300
8.94801	0.00000	5674.91300
8.95186	0.00000	5674.91300
8.95570	0.00000	5674.91300
8.95953	0.00000	5674.91300
8.96338	0.00000	5674.91300
8.96723	0.00000	5674.91300
8.97106	0.00000	5674.91300
8.97490	0.00000	5670.36300
8.97873	0.00000	5670.36300
8.98258	0.00000	5670.36300
8.98641	0.00000	5670.36300
8.99024	0.00000	5670.36300
8.99408	0.00000	5670.36300
8.99792	0.00000	5670.36300
9.00176	0.00000	5674.91300
9.00558	0.00000	5674.91300
9.00941	0.00000	5674.91300
9.01324	0.00000	5674.91300
9.01707	0.00000	5674.91300
9.02090	0.00000	5674.91300
9.02474	0.00000	5674.91300
9.02857	0.00000	5653.08200
9.03241	0.00000	5653.08200
9.03624	0.00000	5653.08200
9.04007	0.00000	5653.08200
9.04389	0.00000	5653.08200
9.04773	0.00000	5653.08200
9.05157	0.00000	5653.08200
9.05541	0.00000	5653.08200
9.05924	0.00000	5652.95300
9.06309	0.00000	5652.95300
9.06693	0.00000	5652.95300
9.07076	0.00000	5652.95300
9.07459	0.00000	5652.95300
9.07844	0.00000	5652.95300
9.08228	0.00000	5652.95300
9.08611	0.00000	5672.74200
9.08995	0.00000	5672.74200
9.09380	0.00000	5672.74200
9.09764	0.00000	5672.74200
9.10147	0.00000	5672.74200
9.10529	0.00000	5672.74200
9.10913	0.00000	5672.74200
9.11296	0.00000	5677.08300
9.11681	0.00000	5677.08300
9.12063	0.00000	5677.08300
9.12446	0.00000	5677.08300
9.12830	0.00000	5677.08300
9.13213	0.00000	5677.08300
9.13598	0.00000	5677.08300
9.13981	0.00000	5677.08300
9.14365	0.00000	5683.32300
9.14749	0.00000	5683.32300
9.15132	0.00000	5683.32300
9.15515	0.00000	5683.32300
9.15898	0.00000	5683.32300
9.16283	0.00000	5683.32300
9.16665	0.00000	5683.32300
9.17049	0.00000	5672.74200
9.17433	0.00000	5672.74200
9.17819	0.00000	5672.74200
9.18203	0.00000	5672.74200
9.18587	0.00000	5672.74200
9.18971	0.00000	5672.74200
9.19355	0.00000	5672.74200
9.19738	0.00000	5648.76100
9.20123	0.00000	5648.76100
9.20507	0.00000	5648.76100
9.20891	0.00000	5648.76100
9.21275	0.00000	5648.76100
9.21659	0.00000	5648.76100
9.22043	0.00000	5648.76100
9.22427	0.00000	5648.76100
9.22812	0.00000	5652.95300
9.23195	0.00000	5652.95300
9.23578	0.00000	5652.95300
9.23963	0.00000	5652.95300
9.24347	0.00000	5652.95300
9.24732	0.00000	5652.95300
9.25115	0.00000	5652.95300
9.25500	0.00000	5646.60100
9.25884	0.00000	5646.60100
9.26265	0.00000	5646.60100
9.26649	0.00000	5646.60100
9.27035	0.00000	5646.60100
9.27418	0.00000	5646.60100
9.27803	0.00000	5646.60100
9.28187	0.00000	5674.91300
9.28573	0.00000	5674.91300
9.28958	0.00000	5674.91300
9.29342	0.00000	5674.91300
9.29726	0.00000	5674.91300
9.30110	0.00000	5674.91300
9.30493	0.00000	5674.91300
9.30877	0.00000	5674.91300
9.31261	0.00000	5685.48400
9.31644	0.00000	5685.48400
9.32029	0.00000	5685.48400
9.32412	0.00000	5685.48400
9.32795	0.00000	5685.48400
9.33180	0.00000	5685.48400
9.33563	0.00000	5685.48400
9.33947	0.00000	5672.74200
9.34330	0.00000	5672.74200
9.34716	0.00000	5672.74200
9.35100	0.00000	5672.74200
9.35485	0.00000	5672.74200
9.35865	0.00000	5672.74200
9.36250	0.00000	5672.74200
9.36634	0.00000	5677.08300
9.37020	0.00000	5677.08300
9.37405	0.00000	5677.08300
9.37788	0.00000	5677.08300
9.38172	0.00000	5677.08300
9.38555	0.00000	5677.08300
9.38939	0.00000	5677.08300
9.39324	0.00000	5677.08300
9.39707	0.00000	5652.95300
9.40092	0.00000	5652.95300
9.40476	0.00000	5652.95300
9.40860	0.00000	5652.95300
9.41244	0.00000	5652.95300
9.41629	0.00000	5652.95300
9.42012	0.00000	5652.95300
9.42396	0.00000	5646.60100
9.42779	0.00000	5646.60100
9.43163	0.00000	5646.60100
9.43547	0.00000	5646.60100
9.43932	0.00000	5646.60100
9.44316	0.00000	5646.60100
9.44698	0.00000	5646.60100
9.45083	0.00000	5674.91300
9.45470	0.00000	5674.91300
9.45854	0.00000	5674.91300
9.46237	0.00000	5674.91300
9.46621	0.00000	5674.91300
9.47004	0.00000	5674.91300
9.47389	0.00000	5674.91300
9.47773	0.00000	5674.91300
9.48156	0.00000	5679.00300
9.48541	0.00000	5679.00300
9.48924	0.00000	5679.00300
9.49307	0.00000	5679.00300
9.49691	0.00000	5679.00300
9.50076	0.00000	5679.00300
9.50460	0.00000	5679.00300
9.50843	0.00000	5672.74200
9.51227	0.00000	5672.74200
9.51612	0.00000	5672.74200
9.51996	0.00000	5672.74200
9.52380	0.00000	5672.74200
9.52764	0.00000	5672.74200
9.53149	0.00000	5672.74200
9.53533	0.00000	5646.60100
9.53920	0.00000	5646.60100
9.54304	0.00000	5646.60100
9.54688	0.00000	5646.60100
9.55073	0.00000	5646.60100
9.55458	0.00000	5646.60100
9.55841	0.00000	5646.60100
9.56226	0.00000	5646.60100
9.56610	0.00000	5650.80200
9.56993	0.00000	5650.80200
9.57377	0.00000	5650.80200
9.57761	0.00000	5650.80200
9.58146	0.00000	5650.80200
9.58530	0.00000	5650.80200
9.58914	0.00000	5650.80200
9.59297	0.00000	5666.23300
9.59681	0.00000	5666.23300
9.60065	0.00000	5666.23300
9.60448	0.00000	5666.23300
9.60832	0.00000	5666.23300
9.61215	0.00000	5666.23300
9.61599	0.00000	5666.23300
9.61983	0.00000	5668.40300
9.62372	0.00000	5668.40300
9.62756	0.00000	5668.40300
9.63140	0.00000	5668.40300
9.63525	0.00000	5668.40300
9.63908	0.00000	5668.40300
9.64292	0.00000	5668.40300
9.64677	0.00000	5668.40300
9.65061	0.00000	5642.20100
9.65445	0.00000	5642.20100
9.65829	0.00000	5642.20100
9.66213	0.00000	5642.20100
9.66596	0.00000	5642.20100
9.66979	0.00000	5642.20100
9.67363	0.00000	5642.20100
9.67747	0.00000	5659.72200
9.68131	0.00000	5659.72200
9.68514	0.00000	5659.72200
9.68898	0.00000	5659.72200
9.69281	0.00000	5659.72200
9.69665	0.00000	5659.72200
9.70050	0.00000	5659.72200
9.70434	0.00000	5661.89200
9.70820	0.00000	5661.89200
9.71205	0.00000	5661.89200
9.71589	0.00000	5661.89200
9.71972	0.00000	5661.89200
9.72356	0.00000	5661.89200
9.72739	0.00000	5661.89200
9.73122	0.00000	5661.89200
9.73506	0.00000	5666.04200
9.73890	0.00000	5666.04200
9.74274	0.00000	5666.04200
9.74658	0.00000	5666.04200
9.75043	0.00000	5666.04200
9.75427	0.00000	5666.04200
9.75811	0.00000	5666.04200
9.76194	0.00000	5659.72200
9.76579	0.00000	5659.72200
9.76962	0.00000	5659.72200
9.77345	0.00000	5659.72200
9.77729	0.00000	5659.72200
9.78114	0.00000	5659.72200
9.78498	0.00000	5659.72200
9.78882	0.00000	5661.89200
9.79267	0.00000	5661.89200
9.79652	0.00000	5661.89200
9.80038	0.00000	5661.89200
9.80422	0.00000	5661.89200
9.80806	0.00000	5661.89200
9.81190	0.00000	5661.89200
9.81575	0.00000	5661.89200
9.81958	0.00000	5646.50200
9.82341	0.00000	5646.50200
9.82725	0.00000	5646.50200
9.83108	0.00000	5646.50200
9.83493	0.00000	5646.50200
9.83877	0.00000	5646.50200
9.84260	0.00000	5646.50200
9.84646	0.00000	5664.06200
9.85030	0.00000	5664.06200
9.85413	0.00000	5664.06200
9.85797	0.00000	5664.06200
9.86181	0.00000	5664.06200
9.86564	0.00000	5664.06200
9.86948	0.00000	5664.06200
9.87332	0.00000	5666.23300
9.87718	0.00000	5666.23300
9.88102	0.00000	5666.23300
9.88486	0.00000	5666.23300
9.88870	0.00000	5666.23300
9.89252	0.00000	5666.23300
9.89636	0.00000	5666.23300
9.90020	0.00000	5666.23300
9.90404	0.00000	5642.20100
9.90788	0.00000	5642.20100
9.91171	0.00000	5642.20100
9.91555	0.00000	5642.20100
9.91940	0.00000	5642.20100
9.92324	0.00000	5642.20100
9.92708	0.00000	5642.20100
9.93092	0.00000	5661.89200
9.93476	0.00000	5661.89200
9.93861	0.00000	5661.89200
9.94245	0.00000	5661.89200
9.94629	0.00000	5661.89200
9.95013	0.00000	5661.89200
9.95397	0.00000	5661.89200
9.95781	0.00000	5640.12100
9.96165	0.00000	5640.12100
9.96549	0.00000	5640.12100
9.96933	0.00000	5640.12100
9.97317	0.00000	5640.12100
9.97701	0.00000	5640.12100
9.98085	0.00000	5640.12100
9.98468	0.00000	5640.12100
9.98852	0.00000	5674.68300
9.99236	0.00000	5674.68300
9.99620	0.00000	5674.68300
