Time (s)   Thrust (N)   RPM
0.00031	0.00000	4383.11600
0.00419	0.00000	4383.11600
0.00806	0.00000	4383.11600
0.01190	0.00000	4383.11600
0.01574	0.00000	4383.11600
0.01956	0.00000	4375.00000
0.02345	0.00000	4375.00000
0.02734	0.00000	4375.00000
0.03119	0.00000	4375.00000
0.03502	0.00000	4375.00000
0.03885	0.00000	4256.00200
0.04267	0.00000	4256.00200
0.04650	0.00000	4256.00200
0.05033	0.00000	4256.00200
0.05415	0.00000	4256.00200
0.05797	0.00000	4047.41300
0.06179	0.00000	4047.41300
0.06562	0.00000	4047.41300
0.06945	0.00000	4047.41300
0.07327	0.00000	4047.41300
0.07709	0.00000	3873.00500
0.08092	0.00000	3873.00500
0.08474	0.00000	3873.00500
0.08857	0.00000	3873.00500
0.09240	0.00000	3873.00500
0.09621	0.00000	3712.36300
0.10004	0.00000	3712.36300
0.10387	0.00000	3712.36300
0.10769	0.00000	3712.36300
0.11151	0.00000	3577.30200
0.11533	0.00000	3577.30200
0.11916	0.00000	3577.30200
0.12299	0.00000	3577.30200
0.12682	0.00000	3577.30200
0.13065	0.00000	3453.00500
0.13448	0.00000	3453.00500
0.13831	0.00000	3453.00500
0.14213	0.00000	3453.00500
0.14596	0.00000	3328.85700
0.14979	0.00000	3328.85700
0.15361	0.00000	3328.85700
0.15744	0.00000	3328.85700
0.16126	0.00000	3225.44600
0.16510	0.00000	3225.44600
0.16894	0.00000	3225.44600
0.17276	0.00000	3225.44600
0.17658	0.00000	3225.44600
0.18040	0.00000	3131.25000
0.18422	0.00000	3131.25000
0.18806	0.00000	3131.25000
0.19189	0.00000	3131.25000
0.19572	0.00000	3054.55900
0.19955	0.00000	3054.55900
0.20338	0.00000	3054.55900
0.20721	0.00000	3054.55900
0.21103	0.00000	2984.37500
0.21485	0.00000	2984.37500
0.21867	0.00000	2984.37500
0.22250	0.00000	2984.37500
0.22633	0.00000	2927.70100
0.23015	0.00000	2927.70100
0.23398	0.00000	2927.70100
0.23782	0.00000	2927.70100
0.24164	0.00000	2852.56400
0.24546	0.00000	2852.56400
0.24929	0.00000	2852.56400
0.25311	0.00000	2852.56400
0.25694	0.00000	2784.21300
0.26076	0.00000	2784.21300
0.26458	0.00000	2784.21300
0.26841	0.00000	2784.21300
0.27224	0.00000	2703.39400
0.27606	0.00000	2703.39400
0.27987	0.00000	2703.39400
0.28370	0.00000	2703.39400
0.28753	0.00000	2664.47300
0.29137	0.00000	2664.47300
0.29519	0.00000	2664.47300
0.29901	0.00000	2664.47300
0.30283	0.00000	2625.82900
0.30666	0.00000	2625.82900
0.31048	0.00000	2625.82900
0.31431	0.00000	2625.82900
0.31813	0.00000	2551.16100
0.32195	0.00000	2551.16100
0.32577	0.00000	2551.16100
0.32959	0.00000	2551.16100
0.33342	0.00000	2506.97500
0.33724	0.00000	2506.97500
0.34106	0.00000	2506.97500
0.34488	0.00000	2461.99300
0.34871	0.00000	2461.99300
0.35253	0.00000	2461.99300
0.35635	0.00000	2461.99300
0.36017	0.00000	2433.23800
0.36399	0.00000	2433.23800
0.36781	0.00000	2433.23800
0.37159	0.00000	2433.23800
0.37542	0.00000	2394.88600
0.37925	0.00000	2394.88600
0.38307	0.00000	2394.88600
0.38689	0.00000	2394.88600
0.39071	0.00000	2369.55200
0.39454	0.00000	2369.55200
0.39836	0.00000	2369.55200
0.40218	0.00000	2369.55200
0.40601	0.00000	2339.40900
0.40984	0.00000	2339.40900
0.41366	0.00000	2339.40900
0.41748	0.00000	2308.70300
0.42131	0.00000	2308.70300
0.42513	0.00000	2308.70300
0.42895	0.00000	2308.70300
0.43277	0.00000	2282.41800
0.43659	0.00000	2282.41800
0.44041	0.00000	2282.41800
0.44423	0.00000	2282.41800
0.44805	0.00000	2242.99000
0.45187	0.00000	2242.99000
0.45569	0.00000	2242.99000
0.45951	0.00000	2194.80100
0.46333	0.00000	2194.80100
0.46716	0.00000	2194.80100
0.47098	0.00000	2194.80100
0.47481	0.00000	2181.65900
0.47864	0.00000	2181.65900
0.48247	0.00000	2181.65900
0.48629	0.00000	2181.65900
0.49011	0.00000	2166.86300
0.49393	0.00000	2166.86300
0.49776	0.00000	2166.86300
0.50159	0.00000	2122.64100
0.50541	0.00000	2122.64100
0.50923	0.00000	2122.64100
0.51306	0.00000	2122.64100
0.51688	0.00000	2125.00000
0.52071	0.00000	2125.00000
0.52454	0.00000	2125.00000
0.52836	0.00000	2125.00000
0.53218	0.00000	2098.21400
0.53601	0.00000	2098.21400
0.53983	0.00000	2098.21400
0.54365	0.00000	2062.50000
0.54747	0.00000	2062.50000
0.55130	0.00000	2062.50000
0.55512	0.00000	2062.50000
0.55894	0.00000	2053.57100
0.56276	0.00000	2053.57100
0.56659	0.00000	2053.57100
0.57041	0.00000	2032.75200
0.57424	0.00000	2032.75200
0.57806	0.00000	2032.75200
0.58188	0.00000	2032.75200
0.58570	0.00000	2023.73700
0.58951	0.00000	2023.73700
0.59334	0.00000	2023.73700
0.59716	0.00000	2023.73700
0.60098	0.00000	2005.70900
0.60480	0.00000	2005.70900
0.60863	0.00000	2005.70900
0.61244	0.00000	1993.32500
0.61627	0.00000	1993.32500
0.62010	0.00000	1993.32500
0.62392	0.00000	1993.32500
0.62775	0.00000	1988.77400
0.63157	0.00000	1988.77400
0.63539	0.00000	1988.77400
0.63921	0.00000	1971.50700
0.64303	0.00000	1971.50700
0.64685	0.00000	1971.50700
0.65066	0.00000	1971.50700
0.65449	0.00000	1956.91700
0.65831	0.00000	1956.91700
0.66214	0.00000	1956.91700
0.66597	0.00000	1943.93300
0.66980	0.00000	1943.93300
0.67362	0.00000	1943.93300
0.67744	0.00000	1943.93300
0.68127	0.00000	1939.33800
0.68509	0.00000	1939.33800
0.68891	0.00000	1939.33800
0.69273	0.00000	1911.76400
0.69655	0.00000	1911.76400
0.70037	0.00000	1911.76400
0.70420	0.00000	1911.76400
0.70802	0.00000	1921.41000
0.71184	0.00000	1921.41000
0.71566	0.00000	1921.41000
0.71949	0.00000	1921.41000
0.72331	0.00000	1897.97800
0.72713	0.00000	1897.97800
0.73095	0.00000	1897.97800
0.73477	0.00000	1870.40400
0.73859	0.00000	1870.40400
0.74241	0.00000	1870.40400
0.74622	0.00000	1870.40400
0.75004	0.00000	1875.00000
0.75387	0.00000	1875.00000
0.75769	0.00000	1875.00000
0.76151	0.00000	1852.02200
0.76533	0.00000	1852.02200
0.76915	0.00000	1852.02200
0.77297	0.00000	1852.02200
0.77679	0.00000	1852.02200
0.78061	0.00000	1852.02200
0.78443	0.00000	1852.02200
0.78825	0.00000	1847.15300
0.79207	0.00000	1847.15300
0.79590	0.00000	1847.15300
0.79973	0.00000	1847.15300
0.80356	0.00000	1829.04400
0.80740	0.00000	1829.04400
0.81122	0.00000	1829.04400
0.81505	0.00000	1828.58900
0.81887	0.00000	1828.58900
0.82269	0.00000	1828.58900
0.82652	0.00000	1828.58900
0.83035	0.00000	1823.94800
0.83417	0.00000	1823.94800
0.83800	0.00000	1823.94800
0.84182	0.00000	1832.81200
0.84564	0.00000	1832.81200
0.84947	0.00000	1832.81200
0.85329	0.00000	1832.81200
0.85711	0.00000	1810.02400
0.86095	0.00000	1810.02400
0.86478	0.00000	1810.02400
0.86859	0.00000	1796.10100
0.87243	0.00000	1796.10100
0.87624	0.00000	1796.10100
0.88006	0.00000	1796.10100
0.88388	0.00000	1791.46000
0.88769	0.00000	1791.46000
0.89152	0.00000	1791.46000
0.89535	0.00000	1795.31200
0.89919	0.00000	1795.31200
0.90302	0.00000	1795.31200
0.90685	0.00000	1795.31200
0.91067	0.00000	1795.31200
0.91450	0.00000	1795.31200
0.91832	0.00000	1795.31200
0.92214	0.00000	1785.93700
0.92597	0.00000	1785.93700
0.92979	0.00000	1785.93700
0.93362	0.00000	1776.56200
0.93745	0.00000	1776.56200
0.94128	0.00000	1776.56200
0.94510	0.00000	1776.56200
0.94892	0.00000	1781.25000
0.95276	0.00000	1781.25000
0.95658	0.00000	1781.25000
0.96040	0.00000	1762.50000
0.96422	0.00000	1762.50000
0.96804	0.00000	1762.50000
0.97187	0.00000	1762.50000
0.97569	0.00000	1771.87500
0.97951	0.00000	1771.87500
0.98334	0.00000	1771.87500
0.98717	0.00000	1757.81200
0.99099	0.00000	1757.81200
0.99481	0.00000	1757.81200
0.99863	0.00000	1757.81200
1.00246	0.00000	1745.04900
1.00628	0.00000	1745.04900
1.01010	0.00000	1745.04900
1.01392	0.00000	1743.75000
1.01773	0.00000	1743.75000
1.02155	0.00000	1743.75000
1.02537	0.00000	1743.75000
1.02923	0.00000	1748.43700
1.03307	0.00000	1748.43700
1.03689	0.00000	1748.43700
1.04071	0.00000	1756.62800
1.04453	0.00000	1756.62800
1.04835	0.00000	1756.62800
1.05218	0.00000	1756.62800
1.05600	0.00000	1756.62800
1.05982	0.00000	1756.62800
1.06365	0.00000	1756.62800
1.06748	0.00000	1729.68700
1.07131	0.00000	1729.68700
1.07514	0.00000	1729.68700
1.07896	0.00000	1742.42400
1.08278	0.00000	1742.42400
1.08660	0.00000	1742.42400
1.09043	0.00000	1742.42400
1.09425	0.00000	1725.00000
1.09808	0.00000	1725.00000
1.10190	0.00000	1725.00000
1.10572	0.00000	1732.95400
1.10954	0.00000	1732.95400
1.11337	0.00000	1732.95400
1.11719	0.00000	1732.95400
1.12101	0.00000	1729.68700
1.12483	0.00000	1729.68700
1.12866	0.00000	1729.68700
1.13248	0.00000	1728.21900
1.13630	0.00000	1728.21900
1.14012	0.00000	1728.21900
1.14395	0.00000	1728.21900
1.14777	0.00000	1715.62500
1.15159	0.00000	1715.62500
1.15542	0.00000	1715.62500
1.15924	0.00000	1723.48400
1.16306	0.00000	1723.48400
1.16688	0.00000	1723.48400
1.17070	0.00000	1723.48400
1.17452	0.00000	1710.93700
1.17834	0.00000	1710.93700
1.18217	0.00000	1710.93700
1.18600	0.00000	1701.56200
1.18983	0.00000	1701.56200
1.19365	0.00000	1701.56200
1.19747	0.00000	1714.01500
1.20129	0.00000	1714.01500
1.20511	0.00000	1714.01500
1.20893	0.00000	1714.01500
1.21276	0.00000	1718.75000
1.21658	0.00000	1718.75000
1.22040	0.00000	1718.75000
1.22423	0.00000	1709.28000
1.22805	0.00000	1709.28000
1.23187	0.00000	1709.28000
1.23569	0.00000	1709.28000
1.23952	0.00000	1701.56200
1.24336	0.00000	1701.56200
1.24722	0.00000	1701.56200
1.25106	0.00000	1709.28000
1.25488	0.00000	1709.28000
1.25871	0.00000	1709.28000
1.26254	0.00000	1709.28000
1.26636	0.00000	1701.56200
1.27017	0.00000	1701.56200
1.27399	0.00000	1701.56200
1.27781	0.00000	1699.81000
1.28164	0.00000	1699.81000
1.28546	0.00000	1699.81000
1.28928	0.00000	1704.54500
1.29310	0.00000	1704.54500
1.29693	0.00000	1704.54500
1.30075	0.00000	1704.54500
1.30458	0.00000	1687.50000
1.30840	0.00000	1687.50000
1.31223	0.00000	1687.50000
1.31605	0.00000	1695.07500
1.31988	0.00000	1695.07500
1.32370	0.00000	1695.07500
1.32752	0.00000	1695.07500
1.33134	0.00000	1692.18700
1.33516	0.00000	1692.18700
1.33898	0.00000	1692.18700
1.34281	0.00000	1695.07500
1.34663	0.00000	1695.07500
1.35045	0.00000	1695.07500
1.35428	0.00000	1695.07500
1.35810	0.00000	1692.18700
1.36191	0.00000	1692.18700
1.36573	0.00000	1692.18700
1.36956	0.00000	1695.07500
1.37337	0.00000	1695.07500
1.37719	0.00000	1695.07500
1.38101	0.00000	1695.07500
1.38483	0.00000	1690.34000
1.38866	0.00000	1690.34000
1.39248	0.00000	1690.34000
1.39631	0.00000	1690.34000
1.40013	0.00000	1690.34000
1.40395	0.00000	1690.34000
1.40777	0.00000	1690.34000
1.41160	0.00000	1690.34000
1.41542	0.00000	1690.34000
1.41924	0.00000	1690.34000
1.42306	0.00000	1699.81000
1.42688	0.00000	1699.81000
1.43070	0.00000	1699.81000
1.43453	0.00000	1685.60600
1.43834	0.00000	1685.60600
1.44216	0.00000	1685.60600
1.44598	0.00000	1685.60600
1.44981	0.00000	1678.12500
1.45363	0.00000	1678.12500
1.45744	0.00000	1678.12500
1.46126	0.00000	1680.87100
1.46508	0.00000	1680.87100
1.46889	0.00000	1680.87100
1.47271	0.00000	1680.87100
1.47653	0.00000	1673.43700
1.48035	0.00000	1673.43700
1.48417	0.00000	1673.43700
1.48799	0.00000	1676.13600
1.49182	0.00000	1676.13600
1.49559	0.00000	1676.13600
1.49941	0.00000	1680.87100
1.50322	0.00000	1680.87100
1.50704	0.00000	1680.87100
1.51086	0.00000	1680.87100
1.51468	0.00000	1673.43700
1.51850	0.00000	1673.43700
1.52233	0.00000	1673.43700
1.52615	0.00000	1676.13600
1.52997	0.00000	1676.13600
1.53379	0.00000	1676.13600
1.53761	0.00000	1676.13600
1.54144	0.00000	1690.34000
1.54533	0.00000	1690.34000
1.54923	0.00000	1690.34000
1.55307	0.00000	1693.23900
1.55690	0.00000	1693.23900
1.56072	0.00000	1693.23900
1.56455	0.00000	1676.13600
1.56837	0.00000	1676.13600
1.57219	0.00000	1676.13600
1.57602	0.00000	1676.13600
1.57984	0.00000	1680.87100
1.58366	0.00000	1680.87100
1.58748	0.00000	1680.87100
1.59130	0.00000	1671.40100
1.59512	0.00000	1671.40100
1.59894	0.00000	1671.40100
1.60276	0.00000	1671.40100
1.60658	0.00000	1668.75000
1.61040	0.00000	1668.75000
1.61423	0.00000	1668.75000
1.61806	0.00000	1676.13600
1.62188	0.00000	1676.13600
1.62570	0.00000	1676.13600
1.62953	0.00000	1676.13600
1.63335	0.00000	1668.75000
1.63716	0.00000	1668.75000
1.64098	0.00000	1668.75000
1.64480	0.00000	1671.40100
1.64865	0.00000	1671.40100
1.65250	0.00000	1671.40100
1.65633	0.00000	1671.40100
1.66016	0.00000	1671.40100
1.66399	0.00000	1671.40100
1.66781	0.00000	1671.40100
1.67159	0.00000	1671.40100
1.67542	0.00000	1671.40100
1.67924	0.00000	1671.40100
1.68305	0.00000	1671.40100
1.68688	0.00000	1671.40100
1.69071	0.00000	1671.40100
1.69453	0.00000	1671.40100
1.69835	0.00000	1664.06200
1.70217	0.00000	1664.06200
1.70599	0.00000	1664.06200
1.70981	0.00000	1666.66600
1.71362	0.00000	1666.66600
1.71745	0.00000	1666.66600
1.72128	0.00000	1666.66600
1.72510	0.00000	1680.87100
1.72892	0.00000	1680.87100
1.73275	0.00000	1680.87100
1.73656	0.00000	1688.45600
1.74039	0.00000	1688.45600
1.74422	0.00000	1688.45600
1.74804	0.00000	1688.45600
1.75186	0.00000	1688.45600
1.75569	0.00000	1688.45600
1.75951	0.00000	1688.45600
1.76334	0.00000	1676.13600
1.76716	0.00000	1676.13600
1.77098	0.00000	1676.13600
1.77480	0.00000	1666.66600
1.77863	0.00000	1666.66600
1.78245	0.00000	1666.66600
1.78627	0.00000	1666.66600
1.79010	0.00000	1680.87100
1.79392	0.00000	1680.87100
1.79775	0.00000	1680.87100
1.80157	0.00000	1683.67300
1.80539	0.00000	1683.67300
1.80922	0.00000	1683.67300
1.81304	0.00000	1683.67300
1.81686	0.00000	1671.40100
1.82068	0.00000	1671.40100
1.82450	0.00000	1671.40100
1.82831	0.00000	1671.40100
1.83213	0.00000	1671.40100
1.83596	0.00000	1671.40100
1.83978	0.00000	1671.40100
1.84359	0.00000	1671.40100
1.84742	0.00000	1671.40100
1.85124	0.00000	1671.40100
1.85506	0.00000	1676.13600
1.85888	0.00000	1676.13600
1.86271	0.00000	1676.13600
1.86652	0.00000	1688.45600
1.87034	0.00000	1688.45600
1.87417	0.00000	1688.45600
1.87799	0.00000	1688.45600
1.88181	0.00000	1676.13600
1.88563	0.00000	1676.13600
1.88945	0.00000	1676.13600
1.89327	0.00000	1671.40100
1.89710	0.00000	1671.40100
1.90092	0.00000	1671.40100
1.90475	0.00000	1671.40100
1.90856	0.00000	1666.66600
1.91239	0.00000	1666.66600
1.91621	0.00000	1666.66600
1.92003	0.00000	1688.45600
1.92386	0.00000	1688.45600
1.92768	0.00000	1688.45600
1.93152	0.00000	1688.45600
1.93534	0.00000	1688.45600
1.93916	0.00000	1688.45600
1.94298	0.00000	1688.45600
1.94680	0.00000	1676.13600
1.95062	0.00000	1676.13600
1.95444	0.00000	1676.13600
1.95826	0.00000	1661.93100
1.96208	0.00000	1661.93100
1.96590	0.00000	1661.93100
1.96972	0.00000	1661.93100
1.97355	0.00000	1664.06200
1.97737	0.00000	1664.06200
1.98119	0.00000	1664.06200
1.98501	0.00000	1688.45600
1.98883	0.00000	1688.45600
1.99265	0.00000	1688.45600
1.99648	0.00000	1683.67300
2.00029	0.00000	1683.67300
2.00412	0.00000	1683.67300
2.00794	0.00000	1683.67300
2.01176	0.00000	1666.66600
2.01558	0.00000	1666.66600
2.01941	0.00000	1666.66600
2.02324	0.00000	1661.93100
2.02707	0.00000	1661.93100
2.03089	0.00000	1661.93100
2.03471	0.00000	1661.93100
2.03853	0.00000	1676.13600
2.04235	0.00000	1676.13600
2.04617	0.00000	1676.13600
2.05000	0.00000	1683.67300
2.05382	0.00000	1683.67300
2.05764	0.00000	1683.67300
2.06147	0.00000	1683.67300
2.06528	0.00000	1676.13600
2.06910	0.00000	1676.13600
2.07292	0.00000	1676.13600
2.07674	0.00000	1666.66600
2.08056	0.00000	1666.66600
2.08439	0.00000	1666.66600
2.08822	0.00000	1666.66600
2.09204	0.00000	1666.66600
2.09586	0.00000	1666.66600
2.09968	0.00000	1666.66600
2.10350	0.00000	1671.40100
2.10732	0.00000	1671.40100
2.11114	0.00000	1671.40100
2.11496	0.00000	1688.45600
2.11879	0.00000	1688.45600
2.12260	0.00000	1688.45600
2.12643	0.00000	1688.45600
2.13025	0.00000	1680.87100
2.13408	0.00000	1680.87100
2.13791	0.00000	1680.87100
2.14173	0.00000	1661.93100
2.14556	0.00000	1661.93100
2.14938	0.00000	1661.93100
2.15321	0.00000	1661.93100
2.15703	0.00000	1676.13600
2.16085	0.00000	1676.13600
2.16467	0.00000	1676.13600
2.16849	0.00000	1678.89000
2.17231	0.00000	1678.89000
2.17613	0.00000	1678.89000
2.17995	0.00000	1683.67300
2.18377	0.00000	1683.67300
2.18759	0.00000	1683.67300
2.19142	0.00000	1683.67300
2.19524	0.00000	1676.13600
2.19909	0.00000	1676.13600
2.20293	0.00000	1676.13600
2.20676	0.00000	1666.66600
2.21058	0.00000	1666.66600
2.21440	0.00000	1666.66600
2.21823	0.00000	1666.66600
2.22206	0.00000	1676.13600
2.22588	0.00000	1676.13600
2.22970	0.00000	1676.13600
2.23352	0.00000	1678.89000
2.23734	0.00000	1678.89000
2.24117	0.00000	1678.89000
2.24499	0.00000	1661.93100
2.24881	0.00000	1661.93100
2.25263	0.00000	1661.93100
2.25646	0.00000	1661.93100
2.26028	0.00000	1666.66600
2.26411	0.00000	1666.66600
2.26794	0.00000	1666.66600
2.27177	0.00000	1683.67300
2.27558	0.00000	1683.67300
2.27942	0.00000	1683.67300
2.28324	0.00000	1683.67300
2.28706	0.00000	1671.40100
2.29087	0.00000	1671.40100
2.29471	0.00000	1671.40100
2.29852	0.00000	1666.66600
2.30234	0.00000	1666.66600
2.30617	0.00000	1666.66600
2.30999	0.00000	1666.66600
2.31382	0.00000	1671.40100
2.31763	0.00000	1671.40100
2.32145	0.00000	1671.40100
2.32527	0.00000	1678.89000
2.32909	0.00000	1678.89000
2.33291	0.00000	1678.89000
2.33673	0.00000	1683.67300
2.34055	0.00000	1683.67300
2.34437	0.00000	1683.67300
2.34819	0.00000	1683.67300
2.35201	0.00000	1666.66600
2.35584	0.00000	1666.66600
2.35966	0.00000	1666.66600
2.36348	0.00000	1661.93100
2.36731	0.00000	1661.93100
2.37113	0.00000	1661.93100
2.37496	0.00000	1661.93100
2.37880	0.00000	1676.13600
2.38262	0.00000	1676.13600
2.38645	0.00000	1676.13600
2.39027	0.00000	1678.89000
2.39409	0.00000	1678.89000
2.39792	0.00000	1678.89000
2.40175	0.00000	1678.89000
2.40558	0.00000	1671.40100
2.40940	0.00000	1671.40100
2.41321	0.00000	1671.40100
2.41704	0.00000	1666.66600
2.42086	0.00000	1666.66600
2.42469	0.00000	1666.66600
2.42851	0.00000	1678.89000
2.43233	0.00000	1678.89000
2.43615	0.00000	1678.89000
2.43997	0.00000	1678.89000
2.44379	0.00000	1676.13600
2.44759	0.00000	1676.13600
2.45141	0.00000	1676.13600
2.45523	0.00000	1661.93100
2.45906	0.00000	1661.93100
2.46288	0.00000	1661.93100
2.46669	0.00000	1661.93100
2.47052	0.00000	1676.13600
2.47434	0.00000	1676.13600
2.47817	0.00000	1676.13600
2.48199	0.00000	1683.67300
2.48582	0.00000	1683.67300
2.48964	0.00000	1683.67300
2.49345	0.00000	1683.67300
2.49728	0.00000	1671.40100
2.50111	0.00000	1671.40100
2.50494	0.00000	1671.40100
2.50876	0.00000	1666.66600
2.51258	0.00000	1666.66600
2.51641	0.00000	1666.66600
2.52023	0.00000	1661.93100
2.52406	0.00000	1661.93100
2.52789	0.00000	1661.93100
2.53171	0.00000	1661.93100
2.53553	0.00000	1676.13600
2.53934	0.00000	1676.13600
2.54317	0.00000	1676.13600
2.54699	0.00000	1683.67300
2.55081	0.00000	1683.67300
2.55463	0.00000	1683.67300
2.55846	0.00000	1683.67300
2.56227	0.00000	1676.13600
2.56609	0.00000	1676.13600
2.56993	0.00000	1676.13600
2.57376	0.00000	1661.93100
2.57758	0.00000	1661.93100
2.58140	0.00000	1661.93100
2.58522	0.00000	1666.66600
2.58904	0.00000	1666.66600
2.59286	0.00000	1666.66600
2.59669	0.00000	1666.66600
2.60051	0.00000	1666.66600
2.60433	0.00000	1666.66600
2.60815	0.00000	1666.66600
2.61197	0.00000	1666.66600
2.61579	0.00000	1666.66600
2.61959	0.00000	1666.66600
2.62342	0.00000	1666.66600
2.62724	0.00000	1659.37500
2.63106	0.00000	1659.37500
2.63488	0.00000	1659.37500
2.63870	0.00000	1666.66600
2.64252	0.00000	1666.66600
2.64634	0.00000	1666.66600
2.65016	0.00000	1666.66600
2.65398	0.00000	1676.13600
2.65780	0.00000	1676.13600
2.66163	0.00000	1676.13600
2.66545	0.00000	1683.67300
2.66927	0.00000	1683.67300
2.67310	0.00000	1683.67300
2.67692	0.00000	1666.66600
2.68073	0.00000	1666.66600
2.68456	0.00000	1666.66600
2.68838	0.00000	1666.66600
2.69220	0.00000	1676.13600
2.69602	0.00000	1676.13600
2.69985	0.00000	1676.13600
2.70366	0.00000	1666.66600
2.70749	0.00000	1666.66600
2.71131	0.00000	1666.66600
2.71513	0.00000	1666.66600
2.71894	0.00000	1676.13600
2.72276	0.00000	1676.13600
2.72658	0.00000	1676.13600
2.73041	0.00000	1666.66600
2.73424	0.00000	1666.66600
2.73805	0.00000	1666.66600
2.74187	0.00000	1666.66600
2.74569	0.00000	1671.40100
2.74952	0.00000	1671.40100
2.75334	0.00000	1671.40100
2.75716	0.00000	1666.66600
2.76098	0.00000	1666.66600
2.76480	0.00000	1666.66600
2.76861	0.00000	1671.40100
2.77243	0.00000	1671.40100
2.77625	0.00000	1671.40100
2.78008	0.00000	1671.40100
2.78390	0.00000	1676.13600
2.78772	0.00000	1676.13600
2.79155	0.00000	1676.13600
2.79537	0.00000	1671.40100
2.79920	0.00000	1671.40100
2.80301	0.00000	1671.40100
2.80684	0.00000	1671.40100
2.81066	0.00000	1664.06200
2.81449	0.00000	1664.06200
2.81832	0.00000	1664.06200
2.82214	0.00000	1661.93100
2.82596	0.00000	1661.93100
2.82980	0.00000	1661.93100
2.83362	0.00000	1671.40100
2.83744	0.00000	1671.40100
2.84126	0.00000	1671.40100
2.84508	0.00000	1671.40100
2.84891	0.00000	1666.66600
2.85273	0.00000	1666.66600
2.85656	0.00000	1666.66600
2.86037	0.00000	1661.93100
2.86421	0.00000	1661.93100
2.86803	0.00000	1661.93100
2.87186	0.00000	1661.93100
2.87568	0.00000	1664.06200
2.87950	0.00000	1664.06200
2.88332	0.00000	1664.06200
2.88714	0.00000	1678.89000
2.89097	0.00000	1678.89000
2.89480	0.00000	1678.89000
2.89863	0.00000	1678.89000
2.90245	0.00000	1676.13600
2.90628	0.00000	1676.13600
2.91010	0.00000	1676.13600
2.91393	0.00000	1666.66600
2.91775	0.00000	1666.66600
2.92157	0.00000	1666.66600
2.92539	0.00000	1666.66600
2.92921	0.00000	1666.66600
2.93304	0.00000	1666.66600
2.93686	0.00000	1666.66600
2.94069	0.00000	1688.45600
2.94450	0.00000	1688.45600
2.94833	0.00000	1688.45600
2.95216	0.00000	1683.67300
2.95599	0.00000	1683.67300
2.95982	0.00000	1683.67300
2.96364	0.00000	1683.67300
2.96747	0.00000	1680.87100
2.97130	0.00000	1680.87100
2.97512	0.00000	1680.87100
2.97894	0.00000	1671.40100
2.98278	0.00000	1671.40100
2.98662	0.00000	1671.40100
2.99045	0.00000	1671.40100
2.99427	0.00000	1676.13600
2.99810	0.00000	1676.13600
3.00192	0.00000	1676.13600
3.00574	0.00000	1678.89000
3.00956	0.00000	1678.89000
3.01338	0.00000	1678.89000
3.01720	0.00000	1683.67300
3.02103	0.00000	1683.67300
3.02486	0.00000	1683.67300
3.02868	0.00000	1683.67300
3.03251	0.00000	1676.13600
3.03634	0.00000	1676.13600
3.04016	0.00000	1676.13600
3.04399	0.00000	1666.66600
3.04780	0.00000	1666.66600
3.05159	0.00000	1666.66600
3.05542	0.00000	1666.66600
3.05923	0.00000	1664.06200
3.06306	0.00000	1664.06200
3.06688	0.00000	1664.06200
3.07070	0.00000	1683.67300
3.07453	0.00000	1683.67300
3.07835	0.00000	1683.67300
3.08218	0.00000	1683.67300
3.08600	0.00000	1671.40100
3.08982	0.00000	1671.40100
3.09365	0.00000	1671.40100
3.09747	0.00000	1666.66600
3.10129	0.00000	1666.66600
3.10511	0.00000	1666.66600
3.10893	0.00000	1666.66600
3.11276	0.00000	1666.66600
3.11658	0.00000	1666.66600
3.12040	0.00000	1666.66600
3.12422	0.00000	1676.13600
3.12804	0.00000	1676.13600
3.13187	0.00000	1676.13600
3.13568	0.00000	1683.67300
3.13950	0.00000	1683.67300
3.14332	0.00000	1683.67300
3.14714	0.00000	1683.67300
3.15097	0.00000	1676.13600
3.15479	0.00000	1676.13600
3.15862	0.00000	1676.13600
3.16244	0.00000	1666.66600
3.16626	0.00000	1666.66600
3.17009	0.00000	1666.66600
3.17391	0.00000	1666.66600
3.17773	0.00000	1666.66600
3.18155	0.00000	1666.66600
3.18537	0.00000	1666.66600
3.18920	0.00000	1688.45600
3.19302	0.00000	1688.45600
3.19685	0.00000	1688.45600
3.20067	0.00000	1683.67300
3.20449	0.00000	1683.67300
3.20831	0.00000	1683.67300
3.21213	0.00000	1683.67300
3.21595	0.00000	1676.13600
3.21977	0.00000	1676.13600
3.22359	0.00000	1676.13600
3.22741	0.00000	1666.66600
3.23124	0.00000	1666.66600
3.23506	0.00000	1666.66600
3.23888	0.00000	1666.66600
3.24271	0.00000	1676.13600
3.24653	0.00000	1676.13600
3.25036	0.00000	1676.13600
3.25419	0.00000	1683.67300
3.25801	0.00000	1683.67300
3.26184	0.00000	1683.67300
3.26566	0.00000	1683.67300
3.26948	0.00000	1683.67300
3.27331	0.00000	1683.67300
3.27713	0.00000	1683.67300
3.28095	0.00000	1671.40100
3.28478	0.00000	1671.40100
3.28860	0.00000	1671.40100
3.29243	0.00000	1666.66600
3.29626	0.00000	1666.66600
3.30009	0.00000	1666.66600
3.30391	0.00000	1666.66600
3.30774	0.00000	1680.87100
3.31156	0.00000	1680.87100
3.31539	0.00000	1680.87100
3.31922	0.00000	1678.89000
3.32304	0.00000	1678.89000
3.32686	0.00000	1678.89000
3.33068	0.00000	1678.89000
3.33451	0.00000	1688.45600
3.33834	0.00000	1688.45600
3.34216	0.00000	1688.45600
3.34598	0.00000	1671.40100
3.34980	0.00000	1671.40100
3.35363	0.00000	1671.40100
3.35745	0.00000	1671.40100
3.36128	0.00000	1671.40100
3.36510	0.00000	1671.40100
3.36892	0.00000	1671.40100
3.37274	0.00000	1680.87100
3.37656	0.00000	1680.87100
3.38038	0.00000	1680.87100
3.38420	0.00000	1683.67300
3.38802	0.00000	1683.67300
3.39185	0.00000	1683.67300
3.39567	0.00000	1683.67300
3.39950	0.00000	1676.13600
3.40332	0.00000	1676.13600
3.40714	0.00000	1676.13600
3.41096	0.00000	1666.66600
3.41478	0.00000	1666.66600
3.41860	0.00000	1666.66600
3.42242	0.00000	1671.40100
3.42624	0.00000	1671.40100
3.43006	0.00000	1671.40100
3.43388	0.00000	1671.40100
3.43770	0.00000	1683.67300
3.44153	0.00000	1683.67300
3.44536	0.00000	1683.67300
3.44918	0.00000	1683.67300
3.45300	0.00000	1683.67300
3.45682	0.00000	1683.67300
3.46064	0.00000	1683.67300
3.46446	0.00000	1676.13600
3.46828	0.00000	1676.13600
3.47210	0.00000	1676.13600
3.47593	0.00000	1666.66600
3.47976	0.00000	1666.66600
3.48358	0.00000	1666.66600
3.48740	0.00000	1666.66600
3.49123	0.00000	1680.87100
3.49508	0.00000	1680.87100
3.49891	0.00000	1680.87100
3.50275	0.00000	1683.67300
3.50658	0.00000	1683.67300
3.51046	0.00000	1683.67300
3.51430	0.00000	1688.45600
3.51814	0.00000	1688.45600
3.52198	0.00000	1688.45600
3.52580	0.00000	1688.45600
3.52964	0.00000	1676.13600
3.53347	0.00000	1676.13600
3.53730	0.00000	1676.13600
3.54113	0.00000	1661.93100
3.54495	0.00000	1661.93100
3.54877	0.00000	1661.93100
3.55259	0.00000	1661.93100
3.55640	0.00000	1680.87100
3.56022	0.00000	1680.87100
3.56404	0.00000	1680.87100
3.56787	0.00000	1683.67300
3.57169	0.00000	1683.67300
3.57552	0.00000	1683.67300
3.57934	0.00000	1683.67300
3.58315	0.00000	1688.45600
3.58699	0.00000	1688.45600
3.59081	0.00000	1688.45600
3.59465	0.00000	1666.66600
3.59847	0.00000	1666.66600
3.60229	0.00000	1666.66600
3.60612	0.00000	1661.93100
3.60994	0.00000	1661.93100
3.61376	0.00000	1661.93100
3.61758	0.00000	1661.93100
3.62140	0.00000	1676.13600
3.62523	0.00000	1676.13600
3.62904	0.00000	1676.13600
3.63286	0.00000	1683.67300
3.63668	0.00000	1683.67300
3.64052	0.00000	1683.67300
3.64435	0.00000	1683.67300
3.64817	0.00000	1676.13600
3.65200	0.00000	1676.13600
3.65582	0.00000	1676.13600
3.65959	0.00000	1671.40100
3.66341	0.00000	1671.40100
3.66724	0.00000	1671.40100
3.67106	0.00000	1661.93100
3.67488	0.00000	1661.93100
3.67871	0.00000	1661.93100
3.68253	0.00000	1661.93100
3.68635	0.00000	1666.66600
3.69018	0.00000	1666.66600
3.69400	0.00000	1666.66600
3.69782	0.00000	1688.45600
3.70165	0.00000	1688.45600
3.70547	0.00000	1688.45600
3.70929	0.00000	1688.45600
3.71311	0.00000	1664.06200
3.71693	0.00000	1664.06200
3.72076	0.00000	1664.06200
3.72458	0.00000	1666.66600
3.72840	0.00000	1666.66600
3.73222	0.00000	1666.66600
3.73604	0.00000	1666.66600
3.73987	0.00000	1676.13600
3.74369	0.00000	1676.13600
3.74751	0.00000	1676.13600
3.75134	0.00000	1678.89000
3.75515	0.00000	1678.89000
3.75898	0.00000	1678.89000
3.76280	0.00000	1666.66600
3.76662	0.00000	1666.66600
3.77044	0.00000	1666.66600
3.77426	0.00000	1666.66600
3.77809	0.00000	1671.40100
3.78191	0.00000	1671.40100
3.78573	0.00000	1671.40100
3.78955	0.00000	1666.66600
3.79338	0.00000	1666.66600
3.79720	0.00000	1666.66600
3.80102	0.00000	1666.66600
3.80485	0.00000	1676.13600
3.80868	0.00000	1676.13600
3.81251	0.00000	1676.13600
3.81632	0.00000	1666.66600
3.82014	0.00000	1666.66600
3.82396	0.00000	1666.66600
3.82778	0.00000	1666.66600
3.83159	0.00000	1666.66600
3.83543	0.00000	1666.66600
3.83925	0.00000	1666.66600
3.84307	0.00000	1683.67300
3.84689	0.00000	1683.67300
3.85072	0.00000	1683.67300
3.85454	0.00000	1683.67300
3.85836	0.00000	1683.67300
3.86219	0.00000	1683.67300
3.86601	0.00000	1683.67300
3.86983	0.00000	1676.13600
3.87366	0.00000	1676.13600
3.87749	0.00000	1676.13600
3.88130	0.00000	1666.66600
3.88513	0.00000	1666.66600
3.88895	0.00000	1666.66600
3.89276	0.00000	1666.66600
3.89658	0.00000	1671.40100
3.90041	0.00000	1671.40100
3.90423	0.00000	1671.40100
3.90805	0.00000	1683.67300
3.91187	0.00000	1683.67300
3.91569	0.00000	1683.67300
3.91951	0.00000	1683.67300
3.92333	0.00000	1683.67300
3.92715	0.00000	1683.67300
3.93097	0.00000	1683.67300
3.93479	0.00000	1666.66600
3.93862	0.00000	1666.66600
3.94243	0.00000	1666.66600
3.94626	0.00000	1666.66600
3.95009	0.00000	1666.66600
3.95392	0.00000	1666.66600
3.95774	0.00000	1666.66600
3.96156	0.00000	1680.87100
3.96539	0.00000	1680.87100
3.96922	0.00000	1680.87100
3.97307	0.00000	1678.89000
3.97690	0.00000	1678.89000
3.98072	0.00000	1678.89000
3.98454	0.00000	1678.89000
3.98836	0.00000	1671.40100
3.99218	0.00000	1671.40100
3.99601	0.00000	1671.40100
3.99983	0.00000	1671.40100
4.00365	0.00000	1671.40100
4.00747	0.00000	1671.40100
4.01129	0.00000	1666.66600
4.01511	0.00000	1666.66600
4.01892	0.00000	1666.66600
4.02275	0.00000	1666.66600
4.02657	0.00000	1671.40100
4.03039	0.00000	1671.40100
4.03421	0.00000	1671.40100
4.03803	0.00000	1661.93100
4.04186	0.00000	1661.93100
4.04568	0.00000	1661.93100
4.04951	0.00000	1661.93100
4.05333	0.00000	1659.37500
4.05715	0.00000	1659.37500
4.06098	0.00000	1659.37500
4.06481	0.00000	1671.40100
4.06863	0.00000	1671.40100
4.07245	0.00000	1671.40100
4.07628	0.00000	1671.40100
4.08010	0.00000	1676.13600
4.08392	0.00000	1676.13600
4.08774	0.00000	1676.13600
4.09156	0.00000	1683.67300
4.09539	0.00000	1683.67300
4.09922	0.00000	1683.67300
4.10304	0.00000	1678.89000
4.10686	0.00000	1678.89000
4.11068	0.00000	1678.89000
4.11451	0.00000	1678.89000
4.11833	0.00000	1671.40100
4.12215	0.00000	1671.40100
4.12597	0.00000	1671.40100
4.12979	0.00000	1666.66600
4.13362	0.00000	1666.66600
4.13743	0.00000	1666.66600
4.14126	0.00000	1666.66600
4.14508	0.00000	1680.87100
4.14890	0.00000	1680.87100
4.15272	0.00000	1680.87100
4.15655	0.00000	1666.66600
4.16036	0.00000	1666.66600
4.16419	0.00000	1666.66600
4.16802	0.00000	1666.66600
4.17184	0.00000	1666.66600
4.17566	0.00000	1666.66600
4.17948	0.00000	1666.66600
4.18331	0.00000	1666.66600
4.18712	0.00000	1666.66600
4.19095	0.00000	1666.66600
4.19476	0.00000	1683.67300
4.19860	0.00000	1683.67300
4.20242	0.00000	1683.67300
4.20625	0.00000	1683.67300
4.21007	0.00000	1676.13600
4.21391	0.00000	1676.13600
4.21772	0.00000	1676.13600
4.22155	0.00000	1666.66600
4.22537	0.00000	1666.66600
4.22919	0.00000	1666.66600
4.23301	0.00000	1666.66600
4.23684	0.00000	1664.06200
4.24066	0.00000	1664.06200
4.24449	0.00000	1664.06200
4.24831	0.00000	1683.67300
4.25214	0.00000	1683.67300
4.25596	0.00000	1683.67300
4.25978	0.00000	1678.89000
4.26359	0.00000	1678.89000
4.26742	0.00000	1678.89000
4.27123	0.00000	1678.89000
4.27505	0.00000	1671.40100
4.27887	0.00000	1671.40100
4.28269	0.00000	1671.40100
4.28651	0.00000	1661.93100
4.29034	0.00000	1661.93100
4.29417	0.00000	1661.93100
4.29798	0.00000	1661.93100
4.30180	0.00000	1676.13600
4.30563	0.00000	1676.13600
4.30945	0.00000	1676.13600
4.31326	0.00000	1683.67300
4.31709	0.00000	1683.67300
4.32092	0.00000	1683.67300
4.32475	0.00000	1683.67300
4.32856	0.00000	1676.13600
4.33238	0.00000	1676.13600
4.33620	0.00000	1676.13600
4.34003	0.00000	1666.66600
4.34385	0.00000	1666.66600
4.34768	0.00000	1666.66600
4.35149	0.00000	1671.40100
4.35531	0.00000	1671.40100
4.35913	0.00000	1671.40100
4.36295	0.00000	1671.40100
4.36677	0.00000	1671.40100
4.37059	0.00000	1671.40100
4.37441	0.00000	1671.40100
4.37823	0.00000	1678.89000
4.38206	0.00000	1678.89000
4.38588	0.00000	1678.89000
4.38970	0.00000	1678.89000
4.39353	0.00000	1676.13600
4.39735	0.00000	1676.13600
4.40118	0.00000	1676.13600
4.40500	0.00000	1661.93100
4.40883	0.00000	1661.93100
4.41264	0.00000	1661.93100
4.41646	0.00000	1661.93100
4.42028	0.00000	1671.40100
4.42410	0.00000	1671.40100
4.42792	0.00000	1671.40100
4.43174	0.00000	1678.89000
4.43556	0.00000	1678.89000
4.43939	0.00000	1678.89000
4.44321	0.00000	1661.93100
4.44704	0.00000	1661.93100
4.45087	0.00000	1661.93100
4.45469	0.00000	1661.93100
4.45851	0.00000	1664.06200
4.46233	0.00000	1664.06200
4.46614	0.00000	1664.06200
4.46997	0.00000	1666.66600
4.47379	0.00000	1666.66600
4.47761	0.00000	1666.66600
4.48143	0.00000	1666.66600
4.48526	0.00000	1676.13600
4.48908	0.00000	1676.13600
4.49290	0.00000	1676.13600
4.49672	0.00000	1666.66600
4.50054	0.00000	1666.66600
4.50436	0.00000	1666.66600
4.50819	0.00000	1666.66600
4.51201	0.00000	1666.66600
4.51583	0.00000	1666.66600
4.51965	0.00000	1666.66600
4.52348	0.00000	1688.45600
4.52729	0.00000	1688.45600
4.53111	0.00000	1688.45600
4.53494	0.00000	1683.67300
4.53876	0.00000	1683.67300
4.54258	0.00000	1683.67300
4.54640	0.00000	1683.67300
4.55022	0.00000	1676.13600
4.55405	0.00000	1676.13600
4.55787	0.00000	1676.13600
4.56169	0.00000	1671.40100
4.56551	0.00000	1671.40100
4.56934	0.00000	1671.40100
4.57316	0.00000	1671.40100
4.57698	0.00000	1664.06200
4.58081	0.00000	1664.06200
4.58463	0.00000	1664.06200
4.58845	0.00000	1666.66600
4.59227	0.00000	1666.66600
4.59610	0.00000	1666.66600
4.59992	0.00000	1683.67300
4.60374	0.00000	1683.67300
4.60756	0.00000	1683.67300
4.61139	0.00000	1683.67300
4.61521	0.00000	1666.66600
4.61903	0.00000	1666.66600
4.62286	0.00000	1666.66600
4.62668	0.00000	1666.66600
4.63051	0.00000	1666.66600
4.63434	0.00000	1666.66600
4.63816	0.00000	1666.66600
4.64198	0.00000	1664.06200
4.64581	0.00000	1664.06200
4.64962	0.00000	1664.06200
4.65345	0.00000	1683.67300
4.65728	0.00000	1683.67300
4.66110	0.00000	1683.67300
4.66491	0.00000	1683.67300
4.66873	0.00000	1671.40100
4.67256	0.00000	1671.40100
4.67637	0.00000	1671.40100
4.68019	0.00000	1661.93100
4.68402	0.00000	1661.93100
4.68784	0.00000	1661.93100
4.69166	0.00000	1661.93100
4.69548	0.00000	1661.93100
4.69930	0.00000	1661.93100
4.70312	0.00000	1661.93100
4.70694	0.00000	1676.13600
4.71077	0.00000	1676.13600
4.71460	0.00000	1676.13600
4.71842	0.00000	1683.67300
4.72224	0.00000	1683.67300
4.72606	0.00000	1683.67300
4.72988	0.00000	1683.67300
4.73370	0.00000	1676.13600
4.73753	0.00000	1676.13600
4.74135	0.00000	1676.13600
4.74517	0.00000	1666.66600
4.74900	0.00000	1666.66600
4.75282	0.00000	1666.66600
4.75664	0.00000	1666.66600
4.76045	0.00000	1666.66600
4.76427	0.00000	1666.66600
4.76809	0.00000	1666.66600
4.77191	0.00000	1683.67300
4.77573	0.00000	1683.67300
4.77955	0.00000	1683.67300
4.78338	0.00000	1688.45600
4.78721	0.00000	1688.45600
4.79103	0.00000	1688.45600
4.79485	0.00000	1688.45600
4.79867	0.00000	1676.13600
4.80249	0.00000	1676.13600
4.80631	0.00000	1676.13600
4.81013	0.00000	1666.66600
4.81395	0.00000	1666.66600
4.81777	0.00000	1666.66600
4.82160	0.00000	1666.66600
4.82543	0.00000	1671.40100
4.82924	0.00000	1671.40100
4.83306	0.00000	1671.40100
4.83688	0.00000	1683.67300
4.84070	0.00000	1683.67300
4.84452	0.00000	1683.67300
4.84834	0.00000	1688.45600
4.85216	0.00000	1688.45600
4.85598	0.00000	1688.45600
4.85980	0.00000	1688.45600
4.86359	0.00000	1666.66600
4.86742	0.00000	1666.66600
4.87124	0.00000	1666.66600
4.87506	0.00000	1661.93100
4.87889	0.00000	1661.93100
4.88270	0.00000	1661.93100
4.88653	0.00000	1661.93100
4.89035	0.00000	1676.13600
4.89417	0.00000	1676.13600
4.89800	0.00000	1676.13600
4.90182	0.00000	1661.93100
4.90565	0.00000	1661.93100
4.90946	0.00000	1661.93100
4.91329	0.00000	1661.93100
4.91711	0.00000	1676.13600
4.92092	0.00000	1676.13600
4.92474	0.00000	1676.13600
4.92856	0.00000	1666.66600
4.93238	0.00000	1666.66600
4.93620	0.00000	1666.66600
4.94002	0.00000	1678.89000
4.94384	0.00000	1678.89000
4.94766	0.00000	1678.89000
4.95148	0.00000	1678.89000
4.95530	0.00000	1671.40100
4.95912	0.00000	1671.40100
4.96294	0.00000	1671.40100
4.96677	0.00000	1661.93100
4.97063	0.00000	1661.93100
4.97446	0.00000	1661.93100
4.97829	0.00000	1661.93100
4.98213	0.00000	1676.13600
4.98595	0.00000	1676.13600
4.98977	0.00000	1676.13600
4.99359	0.00000	1683.67300
4.99741	0.00000	1683.67300
5.00175	0.00000	1683.67300
5.00563	0.00000	1683.67300
5.00947	0.00000	1683.67300
5.01330	0.00000	1683.67300
5.01715	0.00000	1683.67300
5.02098	0.00000	1690.34000
5.02480	0.00000	1690.34000
5.02864	0.00000	1690.34000
5.03251	0.00000	2055.28800
5.03661	0.00000	2055.28800
5.04053	0.00000	2055.28800
5.04440	0.00000	2055.28800
5.04824	0.00000	2521.11500
5.05209	0.00000	2521.11500
5.05591	0.00000	2521.11500
5.05974	0.00000	2521.11500
5.06358	0.00000	2907.83800
5.06743	0.00000	2907.83800
5.07126	0.00000	2907.83800
5.07510	0.00000	2907.83800
5.07892	0.00000	3202.50000
5.08275	0.00000	3202.50000
5.08658	0.00000	3202.50000
5.09041	0.00000	3202.50000
5.09424	0.00000	3202.50000
5.09806	0.00000	3450.72100
5.10190	0.00000	3450.72100
5.10573	0.00000	3450.72100
5.10955	0.00000	3450.72100
5.11338	0.00000	3450.72100
5.11721	0.00000	3638.88900
5.12104	0.00000	3638.88900
5.12486	0.00000	3638.88900
5.12869	0.00000	3638.88900
5.13251	0.00000	3777.17300
5.13634	0.00000	3777.17300
5.14017	0.00000	3777.17300
5.14400	0.00000	3777.17300
5.14782	0.00000	3777.17300
5.15166	0.00000	3891.94500
5.15549	0.00000	3891.94500
5.15931	0.00000	3891.94500
5.16315	0.00000	3891.94500
5.16697	0.00000	3891.94500
5.17080	0.00000	3990.88500
5.17463	0.00000	3990.88500
5.17845	0.00000	3990.88500
5.18228	0.00000	3990.88500
5.18610	0.00000	3990.88500
5.18993	0.00000	4046.55600
5.19376	0.00000	4046.55600
5.19761	0.00000	4046.55600
5.20144	0.00000	4046.55600
5.20528	0.00000	4046.55600
5.20911	0.00000	4114.23100
5.21293	0.00000	4114.23100
5.21678	0.00000	4114.23100
5.22061	0.00000	4114.23100
5.22444	0.00000	4114.23100
5.22828	0.00000	4171.87500
5.23212	0.00000	4171.87500
5.23596	0.00000	4171.87500
5.23979	0.00000	4171.87500
5.24359	0.00000	4171.87500
5.24743	0.00000	4231.16700
5.25125	0.00000	4231.16700
5.25508	0.00000	4231.16700
5.25892	0.00000	4231.16700
5.26275	0.00000	4231.16700
5.26658	0.00000	4231.16700
5.27041	0.00000	4252.45100
5.27425	0.00000	4252.45100
5.27808	0.00000	4252.45100
5.28191	0.00000	4252.45100
5.28574	0.00000	4252.45100
5.28957	0.00000	4279.62700
5.29341	0.00000	4279.62700
5.29724	0.00000	4279.62700
5.30107	0.00000	4279.62700
5.30491	0.00000	4279.62700
5.30874	0.00000	4325.28400
5.31258	0.00000	4325.28400
5.31641	0.00000	4325.28400
5.32024	0.00000	4325.28400
5.32408	0.00000	4325.28400
5.32791	0.00000	4342.74100
5.33174	0.00000	4342.74100
5.33557	0.00000	4342.74100
5.33941	0.00000	4342.74100
5.34324	0.00000	4342.74100
5.34706	0.00000	4342.74100
5.35089	0.00000	4359.97600
5.35471	0.00000	4359.97600
5.35854	0.00000	4359.97600
5.36237	0.00000	4359.97600
5.36620	0.00000	4359.97600
5.37003	0.00000	4387.01900
5.37387	0.00000	4387.01900
5.37771	0.00000	4387.01900
5.38154	0.00000	4387.01900
5.38537	0.00000	4387.01900
5.38920	0.00000	4387.01900
5.39302	0.00000	4417.06700
5.39684	0.00000	4417.06700
5.40067	0.00000	4417.06700
5.40450	0.00000	4417.06700
5.40833	0.00000	4417.06700
5.41217	0.00000	4409.83300
5.41600	0.00000	4409.83300
5.41984	0.00000	4409.83300
5.42366	0.00000	4409.83300
5.42749	0.00000	4409.83300
5.43133	0.00000	4430.73200
5.43515	0.00000	4430.73200
5.43899	0.00000	4430.73200
5.44281	0.00000	4430.73200
5.44664	0.00000	4430.73200
5.45047	0.00000	4430.73200
5.45431	0.00000	4447.19100
5.45814	0.00000	4447.19100
5.46197	0.00000	4447.19100
5.46580	0.00000	4447.19100
5.46963	0.00000	4447.19100
5.47346	0.00000	4417.52300
5.47729	0.00000	4417.52300
5.48112	0.00000	4417.52300
5.48495	0.00000	4417.52300
5.48878	0.00000	4417.52300
5.49261	0.00000	4438.29100
5.49643	0.00000	4438.29100
5.50025	0.00000	4438.29100
5.50409	0.00000	4438.29100
5.50791	0.00000	4438.29100
5.51174	0.00000	4438.29100
5.51557	0.00000	4444.22400
5.51941	0.00000	4444.22400
5.52325	0.00000	4444.22400
5.52708	0.00000	4444.22400
5.53091	0.00000	4444.22400
5.53474	0.00000	4425.11700
5.53856	0.00000	4425.11700
5.54241	0.00000	4425.11700
5.54624	0.00000	4425.11700
5.55007	0.00000	4425.11700
5.55390	0.00000	4425.11700
5.55773	0.00000	4432.61700
5.56156	0.00000	4432.61700
5.56538	0.00000	4432.61700
5.56921	0.00000	4432.61700
5.57304	0.00000	4432.61700
5.57686	0.00000	4439.85800
5.58069	0.00000	4439.85800
5.58451	0.00000	4439.85800
5.58834	0.00000	4439.85800
5.59217	0.00000	4439.85800
5.59601	0.00000	4439.85800
5.59983	0.00000	4444.33600
5.60367	0.00000	4444.33600
5.60749	0.00000	4444.33600
5.61134	0.00000	4444.33600
5.61517	0.00000	4444.33600
5.61901	0.00000	4451.65100
5.62283	0.00000	4451.65100
5.62666	0.00000	4451.65100
5.63049	0.00000	4451.65100
5.63433	0.00000	4451.65100
5.63816	0.00000	4448.70300
5.64199	0.00000	4448.70300
5.64583	0.00000	4448.70300
5.64966	0.00000	4448.70300
5.65350	0.00000	4448.70300
5.65732	0.00000	4448.70300
5.66116	0.00000	4466.39100
5.66499	0.00000	4466.39100
5.66883	0.00000	4466.39100
5.67267	0.00000	4466.39100
5.67650	0.00000	4466.39100
5.68033	0.00000	4457.54700
5.68418	0.00000	4457.54700
5.68801	0.00000	4457.54700
5.69184	0.00000	4457.54700
5.69567	0.00000	4457.54700
5.69951	0.00000	4457.54700
5.70334	0.00000	4464.84400
5.70718	0.00000	4464.84400
5.71101	0.00000	4464.84400
5.71484	0.00000	4464.84400
5.71868	0.00000	4464.84400
5.72251	0.00000	4466.39100
5.72634	0.00000	4466.39100
5.73017	0.00000	4466.39100
5.73401	0.00000	4466.39100
5.73783	0.00000	4466.39100
5.74167	0.00000	4466.39100
5.74550	0.00000	4467.77300
5.74932	0.00000	4467.77300
5.75315	0.00000	4467.77300
5.75699	0.00000	4467.77300
5.76082	0.00000	4467.77300
5.76465	0.00000	4463.44300
5.76848	0.00000	4463.44300
5.77231	0.00000	4463.44300
5.77615	0.00000	4463.44300
5.77998	0.00000	4463.44300
5.78381	0.00000	4463.44300
5.78759	0.00000	4466.39100
5.79142	0.00000	4466.39100
5.79526	0.00000	4466.39100
5.79908	0.00000	4466.39100
5.80292	0.00000	4466.39100
5.80675	0.00000	4466.39100
5.81059	0.00000	4466.39100
5.81442	0.00000	4466.39100
5.81826	0.00000	4466.39100
5.82209	0.00000	4466.39100
5.82591	0.00000	4469.33900
5.82975	0.00000	4469.33900
5.83358	0.00000	4469.33900
5.83742	0.00000	4469.33900
5.84125	0.00000	4469.33900
5.84509	0.00000	4469.33900
5.84892	0.00000	4458.98400
5.85276	0.00000	4458.98400
5.85659	0.00000	4458.98400
5.86043	0.00000	4458.98400
5.86427	0.00000	4458.98400
5.86810	0.00000	4472.28700
5.87195	0.00000	4472.28700
5.87579	0.00000	4472.28700
5.87959	0.00000	4472.28700
5.88343	0.00000	4472.28700
5.88727	0.00000	4472.28700
5.89109	0.00000	4467.77300
5.89492	0.00000	4467.77300
5.89875	0.00000	4467.77300
5.90259	0.00000	4467.77300
5.90642	0.00000	4467.77300
5.91025	0.00000	4457.54700
5.91409	0.00000	4457.54700
5.91792	0.00000	4457.54700
5.92176	0.00000	4457.54700
5.92559	0.00000	4457.54700
5.92943	0.00000	4457.54700
5.93326	0.00000	4467.77300
5.93709	0.00000	4467.77300
5.94093	0.00000	4467.77300
5.94476	0.00000	4467.77300
5.94860	0.00000	4467.77300
5.95242	0.00000	4469.33900
5.95625	0.00000	4469.33900
5.96009	0.00000	4469.33900
5.96392	0.00000	4469.33900
5.96775	0.00000	4469.33900
5.97159	0.00000	4441.40600
5.97542	0.00000	4441.40600
5.97924	0.00000	4441.40600
5.98308	0.00000	4441.40600
5.98691	0.00000	4441.40600
5.99074	0.00000	4441.40600
5.99457	0.00000	4450.19500
5.99840	0.00000	4450.19500
6.00223	0.00000	4450.19500
6.00606	0.00000	4450.19500
6.00990	0.00000	4450.19500
6.01373	0.00000	4469.33900
6.01756	0.00000	4469.33900
6.02139	0.00000	4469.33900
6.02522	0.00000	4469.33900
6.02905	0.00000	4469.33900
6.03289	0.00000	4469.33900
6.03671	0.00000	4464.84400
6.04055	0.00000	4464.84400
6.04438	0.00000	4464.84400
6.04821	0.00000	4464.84400
6.05203	0.00000	4464.84400
6.05588	0.00000	4469.33900
6.05971	0.00000	4469.33900
6.06357	0.00000	4469.33900
6.06741	0.00000	4469.33900
6.07124	0.00000	4469.33900
6.07508	0.00000	4469.33900
6.07892	0.00000	4461.91400
6.08275	0.00000	4461.91400
6.08658	0.00000	4461.91400
6.09041	0.00000	4461.91400
6.09424	0.00000	4461.91400
6.09807	0.00000	4472.28700
6.10190	0.00000	4472.28700
6.10575	0.00000	4472.28700
6.10957	0.00000	4472.28700
6.11341	0.00000	4472.28700
6.11723	0.00000	4472.28700
6.12106	0.00000	4484.08000
6.12489	0.00000	4484.08000
6.12872	0.00000	4484.08000
6.13255	0.00000	4484.08000
6.13639	0.00000	4484.08000
6.14022	0.00000	4469.33900
6.14405	0.00000	4469.33900
6.14788	0.00000	4469.33900
6.15171	0.00000	4469.33900
6.15554	0.00000	4469.33900
6.15937	0.00000	4469.33900
6.16320	0.00000	4469.33900
6.16703	0.00000	4469.33900
6.17086	0.00000	4469.33900
6.17470	0.00000	4469.33900
6.17853	0.00000	4469.33900
6.18237	0.00000	4453.12500
6.18620	0.00000	4453.12500
6.19004	0.00000	4453.12500
6.19387	0.00000	4453.12500
6.19769	0.00000	4453.12500
6.20153	0.00000	4463.44300
6.20537	0.00000	4463.44300
6.20921	0.00000	4463.44300
6.21304	0.00000	4463.44300
6.21688	0.00000	4463.44300
6.22070	0.00000	4463.44300
6.22454	0.00000	4440.02300
6.22838	0.00000	4440.02300
6.23221	0.00000	4440.02300
6.23605	0.00000	4440.02300
6.23988	0.00000	4440.02300
6.24372	0.00000	4469.33900
6.24754	0.00000	4469.33900
6.25139	0.00000	4469.33900
6.25522	0.00000	4469.33900
6.25905	0.00000	4469.33900
6.26289	0.00000	4469.33900
6.26673	0.00000	4442.93500
6.27057	0.00000	4442.93500
6.27440	0.00000	4442.93500
6.27823	0.00000	4442.93500
6.28206	0.00000	4442.93500
6.28589	0.00000	4472.28700
6.28972	0.00000	4472.28700
6.29355	0.00000	4472.28700
6.29738	0.00000	4472.28700
6.30121	0.00000	4472.28700
6.30505	0.00000	4472.28700
6.30888	0.00000	4478.18400
6.31270	0.00000	4478.18400
6.31653	0.00000	4478.18400
6.32036	0.00000	4478.18400
6.32419	0.00000	4478.18400
6.32803	0.00000	4463.44300
6.33186	0.00000	4463.44300
6.33570	0.00000	4463.44300
6.33953	0.00000	4463.44300
6.34335	0.00000	4463.44300
6.34718	0.00000	4463.44300
6.35102	0.00000	4463.44300
6.35485	0.00000	4463.44300
6.35869	0.00000	4463.44300
6.36252	0.00000	4463.44300
6.36636	0.00000	4463.44300
6.37019	0.00000	4461.91400
6.37403	0.00000	4461.91400
6.37786	0.00000	4461.91400
6.38169	0.00000	4461.91400
6.38553	0.00000	4461.91400
6.38936	0.00000	4472.28700
6.39321	0.00000	4472.28700
6.39704	0.00000	4472.28700
6.40089	0.00000	4472.28700
6.40472	0.00000	4472.28700
6.40856	0.00000	4472.28700
6.41239	0.00000	4473.63300
6.41622	0.00000	4473.63300
6.42004	0.00000	4473.63300
6.42388	0.00000	4473.63300
6.42772	0.00000	4473.63300
6.43155	0.00000	4469.33900
6.43541	0.00000	4469.33900
6.43924	0.00000	4469.33900
6.44307	0.00000	4469.33900
6.44690	0.00000	4469.33900
6.45073	0.00000	4469.33900
6.45457	0.00000	4467.77300
6.45841	0.00000	4467.77300
6.46224	0.00000	4467.77300
6.46607	0.00000	4467.77300
6.46991	0.00000	4467.77300
6.47374	0.00000	4469.33900
6.47758	0.00000	4469.33900
6.48141	0.00000	4469.33900
6.48523	0.00000	4469.33900
6.48907	0.00000	4469.33900
6.49290	0.00000	4469.33900
6.49672	0.00000	4469.33900
6.50056	0.00000	4469.33900
6.50439	0.00000	4469.33900
6.50822	0.00000	4469.33900
6.51205	0.00000	4469.33900
6.51588	0.00000	4475.23600
6.51971	0.00000	4475.23600
6.52354	0.00000	4475.23600
6.52737	0.00000	4475.23600
6.53121	0.00000	4475.23600
6.53505	0.00000	4441.40600
6.53890	0.00000	4441.40600
6.54273	0.00000	4441.40600
6.54656	0.00000	4441.40600
6.55042	0.00000	4441.40600
6.55425	0.00000	4441.40600
6.55809	0.00000	4467.77300
6.56193	0.00000	4467.77300
6.56577	0.00000	4467.77300
6.56960	0.00000	4467.77300
6.57344	0.00000	4467.77300
6.57728	0.00000	4463.44300
6.58112	0.00000	4463.44300
6.58495	0.00000	4463.44300
6.58878	0.00000	4463.44300
6.59262	0.00000	4463.44300
6.59645	0.00000	4463.44300
6.60029	0.00000	4470.70300
6.60413	0.00000	4470.70300
6.60796	0.00000	4470.70300
6.61179	0.00000	4470.70300
6.61559	0.00000	4470.70300
6.61943	0.00000	4463.44300
6.62326	0.00000	4463.44300
6.62710	0.00000	4463.44300
6.63093	0.00000	4463.44300
6.63477	0.00000	4463.44300
6.63860	0.00000	4463.44300
6.64243	0.00000	4475.23600
6.64625	0.00000	4475.23600
6.65009	0.00000	4475.23600
6.65392	0.00000	4475.23600
6.65776	0.00000	4475.23600
6.66160	0.00000	4466.39100
6.66542	0.00000	4466.39100
6.66926	0.00000	4466.39100
6.67309	0.00000	4466.39100
6.67693	0.00000	4466.39100
6.68076	0.00000	4466.39100
6.68458	0.00000	4466.39100
6.68841	0.00000	4466.39100
6.69225	0.00000	4466.39100
6.69608	0.00000	4466.39100
6.69992	0.00000	4466.39100
6.70374	0.00000	4444.33600
6.70757	0.00000	4444.33600
6.71141	0.00000	4444.33600
6.71524	0.00000	4444.33600
6.71908	0.00000	4444.33600
6.72291	0.00000	4457.54700
6.72675	0.00000	4457.54700
6.73059	0.00000	4457.54700
6.73442	0.00000	4457.54700
6.73825	0.00000	4457.54700
6.74209	0.00000	4457.54700
6.74592	0.00000	4464.84400
6.74976	0.00000	4464.84400
6.75359	0.00000	4464.84400
6.75742	0.00000	4464.84400
6.76126	0.00000	4464.84400
6.76510	0.00000	4460.49500
6.76894	0.00000	4460.49500
6.77280	0.00000	4460.49500
6.77664	0.00000	4460.49500
6.78048	0.00000	4460.49500
6.78430	0.00000	4460.49500
6.78813	0.00000	4458.98400
6.79197	0.00000	4458.98400
6.79581	0.00000	4458.98400
6.79964	0.00000	4458.98400
6.80347	0.00000	4458.98400
6.80731	0.00000	4454.59800
6.81114	0.00000	4454.59800
6.81496	0.00000	4454.59800
6.81880	0.00000	4454.59800
6.82263	0.00000	4454.59800
6.82646	0.00000	4460.49500
6.83031	0.00000	4460.49500
6.83414	0.00000	4460.49500
6.83797	0.00000	4460.49500
6.84180	0.00000	4460.49500
6.84564	0.00000	4460.49500
6.84948	0.00000	4444.33600
6.85332	0.00000	4444.33600
6.85715	0.00000	4444.33600
6.86099	0.00000	4444.33600
6.86482	0.00000	4444.33600
6.86866	0.00000	4463.44300
6.87251	0.00000	4463.44300
6.87635	0.00000	4463.44300
6.88018	0.00000	4463.44300
6.88401	0.00000	4463.44300
6.88785	0.00000	4463.44300
6.89169	0.00000	4440.02300
6.89553	0.00000	4440.02300
6.89935	0.00000	4440.02300
6.90319	0.00000	4440.02300
6.90701	0.00000	4440.02300
6.91085	0.00000	4454.59800
6.91469	0.00000	4454.59800
6.91852	0.00000	4454.59800
6.92235	0.00000	4454.59800
6.92619	0.00000	4454.59800
6.93002	0.00000	4454.59800
6.93385	0.00000	4461.91400
6.93768	0.00000	4461.91400
6.94152	0.00000	4461.91400
6.94536	0.00000	4461.91400
6.94919	0.00000	4461.91400
6.95302	0.00000	4463.44300
6.95686	0.00000	4463.44300
6.96069	0.00000	4463.44300
6.96453	0.00000	4463.44300
6.96836	0.00000	4463.44300
6.97220	0.00000	4463.44300
6.97602	0.00000	4463.44300
6.97986	0.00000	4463.44300
6.98369	0.00000	4463.44300
6.98753	0.00000	4463.44300
6.99137	0.00000	4463.44300
6.99520	0.00000	4466.39100
6.99904	0.00000	4466.39100
7.00287	0.00000	4466.39100
7.00671	0.00000	4466.39100
7.01055	0.00000	4466.39100
7.01438	0.00000	4435.54700
7.01822	0.00000	4435.54700
7.02205	0.00000	4435.54700
7.02588	0.00000	4435.54700
7.02972	0.00000	4435.54700
7.03356	0.00000	4435.54700
7.03739	0.00000	4464.84400
7.04123	0.00000	4464.84400
7.04506	0.00000	4464.84400
7.04889	0.00000	4464.84400
7.05272	0.00000	4464.84400
7.05656	0.00000	4463.44300
7.06040	0.00000	4463.44300
7.06424	0.00000	4463.44300
7.06807	0.00000	4463.44300
7.07190	0.00000	4463.44300
7.07574	0.00000	4463.44300
7.07958	0.00000	4458.98400
7.08342	0.00000	4458.98400
7.08725	0.00000	4458.98400
7.09108	0.00000	4458.98400
7.09491	0.00000	4458.98400
7.09875	0.00000	4460.49500
7.10259	0.00000	4460.49500
7.10642	0.00000	4460.49500
7.11025	0.00000	4460.49500
7.11408	0.00000	4460.49500
7.11790	0.00000	4460.49500
7.12173	0.00000	4444.33600
7.12556	0.00000	4444.33600
7.12940	0.00000	4444.33600
7.13324	0.00000	4444.33600
7.13707	0.00000	4444.33600
7.14090	0.00000	4435.54700
7.14474	0.00000	4435.54700
7.14856	0.00000	4435.54700
7.15239	0.00000	4435.54700
7.15623	0.00000	4435.54700
7.16005	0.00000	4457.54700
7.16390	0.00000	4457.54700
7.16773	0.00000	4457.54700
7.17156	0.00000	4457.54700
7.17539	0.00000	4457.54700
7.17923	0.00000	4457.54700
7.18306	0.00000	4461.91400
7.18690	0.00000	4461.91400
7.19073	0.00000	4461.91400
7.19456	0.00000	4461.91400
7.19840	0.00000	4461.91400
7.20223	0.00000	4466.39100
7.20607	0.00000	4466.39100
7.20990	0.00000	4466.39100
7.21373	0.00000	4466.39100
7.21756	0.00000	4466.39100
7.22139	0.00000	4466.39100
7.22523	0.00000	4461.91400
7.22906	0.00000	4461.91400
7.23290	0.00000	4461.91400
7.23673	0.00000	4461.91400
7.24056	0.00000	4461.91400
7.24439	0.00000	4460.49500
7.24823	0.00000	4460.49500
7.25206	0.00000	4460.49500
7.25590	0.00000	4460.49500
7.25973	0.00000	4460.49500
7.26356	0.00000	4460.49500
7.26739	0.00000	4453.12500
7.27122	0.00000	4453.12500
7.27506	0.00000	4453.12500
7.27888	0.00000	4453.12500
7.28272	0.00000	4453.12500
7.28655	0.00000	4460.49500
7.29038	0.00000	4460.49500
7.29422	0.00000	4460.49500
7.29805	0.00000	4460.49500
7.30189	0.00000	4460.49500
7.30573	0.00000	4460.49500
7.30960	0.00000	4460.49500
7.31344	0.00000	4460.49500
7.31727	0.00000	4460.49500
7.32111	0.00000	4460.49500
7.32497	0.00000	4460.49500
7.32881	0.00000	4472.28700
7.33265	0.00000	4472.28700
7.33649	0.00000	4472.28700
7.34031	0.00000	4472.28700
7.34415	0.00000	4472.28700
7.34799	0.00000	4463.44300
7.35184	0.00000	4463.44300
7.35567	0.00000	4463.44300
7.35950	0.00000	4463.44300
7.36333	0.00000	4463.44300
7.36716	0.00000	4463.44300
7.37099	0.00000	4456.05400
7.37483	0.00000	4456.05400
7.37865	0.00000	4456.05400
7.38248	0.00000	4456.05400
7.38631	0.00000	4456.05400
7.39015	0.00000	4463.44300
7.39398	0.00000	4463.44300
7.39782	0.00000	4463.44300
7.40165	0.00000	4463.44300
7.40550	0.00000	4463.44300
7.40933	0.00000	4463.44300
7.41317	0.00000	4450.19500
7.41700	0.00000	4450.19500
7.42083	0.00000	4450.19500
7.42466	0.00000	4450.19500
7.42849	0.00000	4450.19500
7.43233	0.00000	4463.44300
7.43615	0.00000	4463.44300
7.43999	0.00000	4463.44300
7.44382	0.00000	4463.44300
7.44765	0.00000	4463.44300
7.45148	0.00000	4482.79300
7.45530	0.00000	4482.79300
7.45914	0.00000	4482.79300
7.46297	0.00000	4482.79300
7.46681	0.00000	4482.79300
7.47063	0.00000	4482.79300
7.47446	0.00000	4463.44300
7.47829	0.00000	4463.44300
7.48213	0.00000	4463.44300
7.48596	0.00000	4463.44300
7.48979	0.00000	4463.44300
7.49363	0.00000	4457.54700
7.49746	0.00000	4457.54700
7.50130	0.00000	4457.54700
7.50513	0.00000	4457.54700
7.50896	0.00000	4457.54700
7.51280	0.00000	4457.54700
7.51663	0.00000	4461.91400
7.52047	0.00000	4461.91400
7.52430	0.00000	4461.91400
7.52814	0.00000	4461.91400
7.53197	0.00000	4461.91400
7.53580	0.00000	4463.44300
7.53959	0.00000	4463.44300
7.54342	0.00000	4463.44300
7.54725	0.00000	4463.44300
7.55109	0.00000	4463.44300
7.55491	0.00000	4463.44300
7.55875	0.00000	4464.84400
7.56259	0.00000	4464.84400
7.56642	0.00000	4464.84400
7.57025	0.00000	4464.84400
7.57408	0.00000	4464.84400
7.57792	0.00000	4463.44300
7.58176	0.00000	4463.44300
7.58560	0.00000	4463.44300
7.58944	0.00000	4463.44300
7.59327	0.00000	4463.44300
7.59710	0.00000	4463.44300
7.60093	0.00000	4469.33900
7.60477	0.00000	4469.33900
7.60860	0.00000	4469.33900
7.61244	0.00000	4469.33900
7.61628	0.00000	4469.33900
7.62011	0.00000	4460.49500
7.62394	0.00000	4460.49500
7.62778	0.00000	4460.49500
7.63159	0.00000	4460.49500
7.63542	0.00000	4460.49500
7.63924	0.00000	4463.44300
7.64309	0.00000	4463.44300
7.64692	0.00000	4463.44300
7.65074	0.00000	4463.44300
7.65457	0.00000	4463.44300
7.65840	0.00000	4463.44300
7.66224	0.00000	4458.98400
7.66607	0.00000	4458.98400
7.66990	0.00000	4458.98400
7.67373	0.00000	4458.98400
7.67756	0.00000	4458.98400
7.68140	0.00000	4463.44300
7.68524	0.00000	4463.44300
7.68907	0.00000	4463.44300
7.69290	0.00000	4463.44300
7.69674	0.00000	4463.44300
7.70057	0.00000	4463.44300
7.70440	0.00000	4464.84400
7.70824	0.00000	4464.84400
7.71207	0.00000	4464.84400
7.71591	0.00000	4464.84400
7.71975	0.00000	4464.84400
7.72359	0.00000	4457.54700
7.72743	0.00000	4457.54700
7.73126	0.00000	4457.54700
7.73509	0.00000	4457.54700
7.73892	0.00000	4457.54700
7.74275	0.00000	4457.54700
7.74658	0.00000	4450.19500
7.75042	0.00000	4450.19500
7.75426	0.00000	4450.19500
7.75809	0.00000	4450.19500
7.76192	0.00000	4450.19500
7.76574	0.00000	4457.54700
7.76957	0.00000	4457.54700
7.77341	0.00000	4457.54700
7.77724	0.00000	4457.54700
7.78108	0.00000	4457.54700
7.78491	0.00000	4460.49500
7.78873	0.00000	4460.49500
7.79257	0.00000	4460.49500
7.79640	0.00000	4460.49500
7.80023	0.00000	4460.49500
7.80407	0.00000	4460.49500
7.80790	0.00000	4450.19500
7.81173	0.00000	4450.19500
7.81557	0.00000	4450.19500
7.81940	0.00000	4450.19500
7.82324	0.00000	4450.19500
7.82706	0.00000	4460.49500
7.83090	0.00000	4460.49500
7.83474	0.00000	4460.49500
7.83858	0.00000	4460.49500
7.84242	0.00000	4460.49500
7.84625	0.00000	4460.49500
7.85009	0.00000	4458.98400
7.85391	0.00000	4458.98400
7.85774	0.00000	4458.98400
7.86158	0.00000	4458.98400
7.86541	0.00000	4458.98400
7.86925	0.00000	4457.54700
7.87308	0.00000	4457.54700
7.87692	0.00000	4457.54700
7.88076	0.00000	4457.54700
7.88459	0.00000	4457.54700
7.88842	0.00000	4457.54700
7.89225	0.00000	4458.98400
7.89608	0.00000	4458.98400
7.89992	0.00000	4458.98400
7.90376	0.00000	4458.98400
7.90760	0.00000	4458.98400
7.91144	0.00000	4457.54700
7.91527	0.00000	4457.54700
7.91910	0.00000	4457.54700
7.92294	0.00000	4457.54700
7.92678	0.00000	4457.54700
7.93060	0.00000	4451.65100
7.93443	0.00000	4451.65100
7.93827	0.00000	4451.65100
7.94211	0.00000	4451.65100
7.94595	0.00000	4451.65100
7.94977	0.00000	4451.65100
7.95360	0.00000	4438.47600
7.95743	0.00000	4438.47600
7.96127	0.00000	4438.47600
7.96511	0.00000	4438.47600
7.96895	0.00000	4438.47600
7.97282	0.00000	4457.54700
7.97667	0.00000	4457.54700
7.98052	0.00000	4457.54700
7.98435	0.00000	4457.54700
7.98819	0.00000	4457.54700
7.99203	0.00000	4457.54700
7.99587	0.00000	4464.84400
7.99971	0.00000	4464.84400
8.00356	0.00000	4464.84400
8.00740	0.00000	4464.84400
8.01123	0.00000	4464.84400
8.01507	0.00000	4454.59800
8.01892	0.00000	4454.59800
8.02275	0.00000	4454.59800
8.02660	0.00000	4454.59800
8.03042	0.00000	4454.59800
8.03427	0.00000	4454.59800
8.03810	0.00000	4447.26500
8.04194	0.00000	4447.26500
8.04578	0.00000	4447.26500
8.04961	0.00000	4447.26500
8.05345	0.00000	4447.26500
8.05727	0.00000	4451.65100
8.06111	0.00000	4451.65100
8.06494	0.00000	4451.65100
8.06878	0.00000	4451.65100
8.07262	0.00000	4451.65100
8.07653	0.00000	4457.54700
8.08040	0.00000	4457.54700
8.08423	0.00000	4457.54700
8.08807	0.00000	4457.54700
8.09190	0.00000	4457.54700
8.09574	0.00000	4457.54700
8.09959	0.00000	4472.28700
8.10343	0.00000	4472.28700
8.10726	0.00000	4472.28700
8.11109	0.00000	4472.28700
8.11493	0.00000	4472.28700
8.11877	0.00000	4460.49500
8.12259	0.00000	4460.49500
8.12642	0.00000	4460.49500
8.13026	0.00000	4460.49500
8.13409	0.00000	4460.49500
8.13793	0.00000	4460.49500
8.14176	0.00000	4453.12500
8.14560	0.00000	4453.12500
8.14944	0.00000	4453.12500
8.15327	0.00000	4453.12500
8.15711	0.00000	4453.12500
8.16094	0.00000	4457.54700
8.16478	0.00000	4457.54700
8.16861	0.00000	4457.54700
8.17245	0.00000	4457.54700
8.17628	0.00000	4457.54700
8.18012	0.00000	4457.54700
8.18395	0.00000	4481.13200
8.18778	0.00000	4481.13200
8.19159	0.00000	4481.13200
8.19543	0.00000	4481.13200
8.19926	0.00000	4481.13200
8.20308	0.00000	4454.59800
8.20691	0.00000	4454.59800
8.21075	0.00000	4454.59800
8.21457	0.00000	4454.59800
8.21841	0.00000	4454.59800
8.22224	0.00000	4457.54700
8.22607	0.00000	4457.54700
8.22989	0.00000	4457.54700
8.23372	0.00000	4457.54700
8.23756	0.00000	4457.54700
8.24138	0.00000	4457.54700
8.24521	0.00000	4454.59800
8.24904	0.00000	4454.59800
8.25287	0.00000	4454.59800
8.25669	0.00000	4454.59800
8.26052	0.00000	4454.59800
8.26435	0.00000	4454.59800
8.26819	0.00000	4454.59800
8.27202	0.00000	4454.59800
8.27584	0.00000	4454.59800
8.27968	0.00000	4454.59800
8.28351	0.00000	4454.59800
8.28734	0.00000	4458.98400
8.29118	0.00000	4458.98400
8.29501	0.00000	4458.98400
8.29884	0.00000	4458.98400
8.30267	0.00000	4458.98400
8.30651	0.00000	4457.54700
8.31034	0.00000	4457.54700
8.31416	0.00000	4457.54700
8.31800	0.00000	4457.54700
8.32183	0.00000	4457.54700
8.32567	0.00000	4457.54700
8.32951	0.00000	4453.12500
8.33334	0.00000	4453.12500
8.33718	0.00000	4453.12500
8.34101	0.00000	4453.12500
8.34485	0.00000	4453.12500
8.34867	0.00000	4454.59800
8.35250	0.00000	4454.59800
8.35634	0.00000	4454.59800
8.36018	0.00000	4454.59800
8.36402	0.00000	4454.59800
8.36785	0.00000	4442.80600
8.37168	0.00000	4442.80600
8.37552	0.00000	4442.80600
8.37935	0.00000	4442.80600
8.38319	0.00000	4442.80600
8.38703	0.00000	4442.80600
8.39086	0.00000	4460.49500
8.39468	0.00000	4460.49500
8.39851	0.00000	4460.49500
8.40234	0.00000	4460.49500
8.40618	0.00000	4460.49500
8.41001	0.00000	4451.65100
8.41385	0.00000	4451.65100
8.41767	0.00000	4451.65100
8.42151	0.00000	4451.65100
8.42534	0.00000	4451.65100
8.42918	0.00000	4451.65100
8.43300	0.00000	4478.18400
8.43684	0.00000	4478.18400
8.44067	0.00000	4478.18400
8.44450	0.00000	4478.18400
8.44833	0.00000	4478.18400
8.45217	0.00000	4457.54700
8.45600	0.00000	4457.54700
8.45983	0.00000	4457.54700
8.46366	0.00000	4457.54700
8.46750	0.00000	4457.54700
8.47133	0.00000	4457.54700
8.47516	0.00000	4450.19500
8.47899	0.00000	4450.19500
8.48283	0.00000	4450.19500
8.48667	0.00000	4450.19500
8.49050	0.00000	4450.19500
8.49433	0.00000	4457.54700
8.49816	0.00000	4457.54700
8.50198	0.00000	4457.54700
8.50581	0.00000	4457.54700
8.50964	0.00000	4457.54700
8.51348	0.00000	4457.54700
8.51731	0.00000	4457.54700
8.52114	0.00000	4457.54700
8.52499	0.00000	4457.54700
8.52881	0.00000	4457.54700
8.53264	0.00000	4457.54700
8.53647	0.00000	4435.54700
8.54031	0.00000	4435.54700
8.54415	0.00000	4435.54700
8.54798	0.00000	4435.54700
8.55182	0.00000	4435.54700
8.55566	0.00000	4457.54700
8.55949	0.00000	4457.54700
8.56332	0.00000	4457.54700
8.56716	0.00000	4457.54700
8.57099	0.00000	4457.54700
8.57483	0.00000	4457.54700
8.57866	0.00000	4458.98400
8.58250	0.00000	4458.98400
8.58634	0.00000	4458.98400
8.59018	0.00000	4458.98400
8.59401	0.00000	4458.98400
8.59784	0.00000	4482.79300
8.60168	0.00000	4482.79300
8.60552	0.00000	4482.79300
8.60935	0.00000	4482.79300
8.61319	0.00000	4482.79300
8.61703	0.00000	4482.79300
8.62087	0.00000	4458.98400
8.62470	0.00000	4458.98400
8.62853	0.00000	4458.98400
8.63236	0.00000	4458.98400
8.63619	0.00000	4458.98400
8.64002	0.00000	4451.65100
8.64384	0.00000	4451.65100
8.64768	0.00000	4451.65100
8.65152	0.00000	4451.65100
8.65535	0.00000	4451.65100
8.65918	0.00000	4457.54700
8.66300	0.00000	4457.54700
8.66683	0.00000	4457.54700
8.67067	0.00000	4457.54700
8.67450	0.00000	4457.54700
8.67833	0.00000	4457.54700
8.68215	0.00000	4451.65100
8.68599	0.00000	4451.65100
8.68982	0.00000	4451.65100
8.69365	0.00000	4451.65100
8.69748	0.00000	4451.65100
8.70132	0.00000	4451.65100
8.70518	0.00000	4451.65100
8.70902	0.00000	4451.65100
8.71286	0.00000	4451.65100
8.71669	0.00000	4451.65100
8.72052	0.00000	4451.65100
8.72435	0.00000	4456.05400
8.72819	0.00000	4456.05400
8.73201	0.00000	4456.05400
8.73584	0.00000	4456.05400
8.73968	0.00000	4456.05400
8.74350	0.00000	4451.65100
8.74733	0.00000	4451.65100
8.75116	0.00000	4451.65100
8.75499	0.00000	4451.65100
8.75882	0.00000	4451.65100
8.76265	0.00000	4451.65100
8.76649	0.00000	4453.12500
8.77033	0.00000	4453.12500
8.77416	0.00000	4453.12500
8.77799	0.00000	4453.12500
8.78181	0.00000	4453.12500
8.78565	0.00000	4445.75500
8.78948	0.00000	4445.75500
8.79331	0.00000	4445.75500
8.79714	0.00000	4445.75500
8.80097	0.00000	4445.75500
8.80481	0.00000	4445.75500
8.80863	0.00000	4429.68700
8.81246	0.00000	4429.68700
8.81630	0.00000	4429.68700
8.82013	0.00000	4429.68700
8.82395	0.00000	4429.68700
8.82779	0.00000	4448.70300
8.83159	0.00000	4448.70300
8.83543	0.00000	4448.70300
8.83926	0.00000	4448.70300
8.84309	0.00000	4448.70300
8.84693	0.00000	4448.70300
8.85076	0.00000	4448.70300
8.85459	0.00000	4448.70300
8.85842	0.00000	4448.70300
8.86226	0.00000	4448.70300
8.86609	0.00000	4448.70300
8.86993	0.00000	4456.05400
8.87375	0.00000	4456.05400
8.87758	0.00000	4456.05400
8.88142	0.00000	4456.05400
8.88524	0.00000	4456.05400
8.88908	0.00000	4442.80600
8.89294	0.00000	4442.80600
8.89700	0.00000	4442.80600
8.90098	0.00000	4442.80600
8.90487	0.00000	4442.80600
8.90872	0.00000	4442.80600
8.91257	0.00000	4472.28700
8.91641	0.00000	4472.28700
8.92025	0.00000	4472.28700
8.92408	0.00000	4472.28700
8.92792	0.00000	4472.28700
8.93176	0.00000	4454.59800
8.93560	0.00000	4454.59800
8.93944	0.00000	4454.59800
8.94328	0.00000	4454.59800
8.94713	0.00000	4454.59800
8.95097	0.00000	4460.49500
8.95481	0.00000	4460.49500
8.95865	0.00000	4460.49500
8.96248	0.00000	4460.49500
8.96633	0.00000	4460.49500
8.97021	0.00000	4460.49500
8.97405	0.00000	4472.28700
8.97789	0.00000	4472.28700
8.98173	0.00000	4472.28700
8.98556	0.00000	4472.28700
8.98940	0.00000	4472.28700
8.99324	0.00000	4448.70300
8.99707	0.00000	4448.70300
9.00091	0.00000	4448.70300
9.00474	0.00000	4448.70300
9.00858	0.00000	4448.70300
9.01241	0.00000	4448.70300
9.01626	0.00000	4450.19500
9.02009	0.00000	4450.19500
9.02392	0.00000	4450.19500
9.02775	0.00000	4450.19500
9.03158	0.00000	4450.19500
9.03542	0.00000	4454.59800
9.03926	0.00000	4454.59800
9.04310	0.00000	4454.59800
9.04694	0.00000	4454.59800
9.05079	0.00000	4454.59800
9.05462	0.00000	4457.54700
9.05845	0.00000	4457.54700
9.06228	0.00000	4457.54700
9.06612	0.00000	4457.54700
9.06996	0.00000	4457.54700
9.07380	0.00000	4457.54700
9.07764	0.00000	4457.54700
9.08147	0.00000	4457.54700
9.08531	0.00000	4457.54700
9.08914	0.00000	4457.54700
9.09299	0.00000	4457.54700
9.09683	0.00000	4451.65100
9.10071	0.00000	4451.65100
9.10456	0.00000	4451.65100
9.10841	0.00000	4451.65100
9.11225	0.00000	4451.65100
9.11608	0.00000	4451.65100
9.11992	0.00000	4450.19500
9.12375	0.00000	4450.19500
9.12759	0.00000	4450.19500
9.13142	0.00000	4450.19500
9.13526	0.00000	4450.19500
9.13944	0.00000	4451.65100
9.14353	0.00000	4451.65100
9.14755	0.00000	4451.65100
9.15148	0.00000	4451.65100
9.15539	0.00000	4451.65100
9.15924	0.00000	4451.65100
9.16308	0.00000	4451.65100
9.16692	0.00000	4451.65100
9.17079	0.00000	4451.65100
9.17463	0.00000	4451.65100
9.17847	0.00000	4451.65100
9.18231	0.00000	4458.98400
9.18616	0.00000	4458.98400
9.19002	0.00000	4458.98400
9.19387	0.00000	4458.98400
9.19770	0.00000	4458.98400
9.20155	0.00000	4473.89200
9.20540	0.00000	4473.89200
9.20925	0.00000	4473.89200
9.21309	0.00000	4473.89200
9.21693	0.00000	4473.89200
9.22080	0.00000	4473.89200
9.22463	0.00000	4463.44300
9.22846	0.00000	4463.44300
9.23229	0.00000	4463.44300
9.23615	0.00000	4463.44300
9.24000	0.00000	4463.44300
9.24384	0.00000	4451.65100
9.24771	0.00000	4451.65100
9.25157	0.00000	4451.65100
9.25545	0.00000	4451.65100
9.25929	0.00000	4451.65100
9.26313	0.00000	4457.54700
9.26698	0.00000	4457.54700
9.27083	0.00000	4457.54700
9.27468	0.00000	4457.54700
9.27853	0.00000	4457.54700
9.28236	0.00000	4457.54700
9.28620	0.00000	4441.40600
9.29006	0.00000	4441.40600
9.29390	0.00000	4441.40600
9.29773	0.00000	4441.40600
9.30157	0.00000	4441.40600
9.30544	0.00000	4451.65100
9.30928	0.00000	4451.65100
9.31311	0.00000	4451.65100
9.31695	0.00000	4451.65100
9.32081	0.00000	4451.65100
9.32464	0.00000	4451.65100
9.32848	0.00000	4456.05400
9.33231	0.00000	4456.05400
9.33615	0.00000	4456.05400
9.34001	0.00000	4456.05400
9.34385	0.00000	4456.05400
9.34768	0.00000	4473.89200
9.35153	0.00000	4473.89200
9.35540	0.00000	4473.89200
9.35924	0.00000	4473.89200
9.36308	0.00000	4473.89200
9.36692	0.00000	4454.59800
9.37080	0.00000	4454.59800
9.37463	0.00000	4454.59800
9.37847	0.00000	4454.59800
9.38230	0.00000	4454.59800
9.38614	0.00000	4454.59800
9.38999	0.00000	4438.47600
9.39383	0.00000	4438.47600
9.39767	0.00000	4438.47600
9.40152	0.00000	4438.47600
9.40539	0.00000	4438.47600
9.40922	0.00000	4454.59800
9.41306	0.00000	4454.59800
9.41690	0.00000	4454.59800
9.42077	0.00000	4454.59800
9.42461	0.00000	4454.59800
9.42844	0.00000	4454.59800
9.43227	0.00000	4447.26500
9.43610	0.00000	4447.26500
9.43997	0.00000	4447.26500
9.44380	0.00000	4447.26500
9.44759	0.00000	4447.26500
9.45142	0.00000	4457.54700
9.45528	0.00000	4457.54700
9.45911	0.00000	4457.54700
9.46294	0.00000	4457.54700
9.46677	0.00000	4457.54700
9.47061	0.00000	4457.54700
9.47445	0.00000	4469.33900
9.47830	0.00000	4469.33900
9.48214	0.00000	4469.33900
9.48596	0.00000	4469.33900
9.48982	0.00000	4469.33900
9.49366	0.00000	4451.65100
9.49749	0.00000	4451.65100
9.50133	0.00000	4451.65100
9.50518	0.00000	4451.65100
9.50903	0.00000	4451.65100
9.51286	0.00000	4454.59800
9.51670	0.00000	4454.59800
9.52054	0.00000	4454.59800
9.52440	0.00000	4454.59800
9.52825	0.00000	4454.59800
9.53209	0.00000	4454.59800
9.53594	0.00000	4453.12500
9.53979	0.00000	4453.12500
9.54359	0.00000	4453.12500
9.54742	0.00000	4453.12500
9.55126	0.00000	4453.12500
9.55513	0.00000	4451.65100
9.55897	0.00000	4451.65100
9.56280	0.00000	4451.65100
9.56664	0.00000	4451.65100
9.57047	0.00000	4451.65100
9.57433	0.00000	4451.65100
9.57818	0.00000	4453.12500
9.58202	0.00000	4453.12500
9.58586	0.00000	4453.12500
9.58972	0.00000	4453.12500
9.59357	0.00000	4453.12500
9.59741	0.00000	4454.59800
9.60124	0.00000	4454.59800
9.60511	0.00000	4454.59800
9.60896	0.00000	4454.59800
9.61280	0.00000	4454.59800
9.61663	0.00000	4445.75500
9.62046	0.00000	4445.75500
9.62432	0.00000	4445.75500
9.62817	0.00000	4445.75500
9.63201	0.00000	4445.75500
9.63587	0.00000	4445.75500
9.63973	0.00000	4463.44300
9.64357	0.00000	4463.44300
9.64742	0.00000	4463.44300
9.65126	0.00000	4463.44300
9.65513	0.00000	4463.44300
9.65899	0.00000	4457.54700
9.66282	0.00000	4457.54700
9.66666	0.00000	4457.54700
9.67049	0.00000	4457.54700
9.67435	0.00000	4457.54700
9.67819	0.00000	4457.54700
9.68202	0.00000	4434.20000
9.68587	0.00000	4434.20000
9.68972	0.00000	4434.20000
9.69357	0.00000	4434.20000
9.69740	0.00000	4434.20000
9.70123	0.00000	4454.59800
9.70510	0.00000	4454.59800
9.70893	0.00000	4454.59800
9.71276	0.00000	4454.59800
9.71660	0.00000	4454.59800
9.72044	0.00000	4454.59800
9.72429	0.00000	4447.26500
9.72812	0.00000	4447.26500
9.73196	0.00000	4447.26500
9.73580	0.00000	4447.26500
9.73967	0.00000	4447.26500
9.74350	0.00000	4460.49500
9.74734	0.00000	4460.49500
9.75117	0.00000	4460.49500
9.75503	0.00000	4460.49500
9.75888	0.00000	4460.49500
9.76271	0.00000	4460.49500
9.76655	0.00000	4460.49500
9.77040	0.00000	4460.49500
9.77429	0.00000	4460.49500
9.77814	0.00000	4460.49500
9.78198	0.00000	4460.49500
9.78582	0.00000	4461.91400
9.78968	0.00000	4461.91400
9.79353	0.00000	4461.91400
9.79737	0.00000	4461.91400
9.80122	0.00000	4461.91400
9.80508	0.00000	4460.49500
9.80894	0.00000	4460.49500
9.81278	0.00000	4460.49500
9.81662	0.00000	4460.49500
9.82047	0.00000	4460.49500
9.82432	0.00000	4460.49500
9.82816	0.00000	4467.77300
9.83199	0.00000	4467.77300
9.83582	0.00000	4467.77300
9.83969	0.00000	4467.77300
9.84353	0.00000	4467.77300
9.84738	0.00000	4460.49500
9.85122	0.00000	4460.49500
9.85510	0.00000	4460.49500
9.85893	0.00000	4460.49500
9.86278	0.00000	4460.49500
9.86662	0.00000	4466.39100
9.87045	0.00000	4466.39100
9.87432	0.00000	4466.39100
9.87817	0.00000	4466.39100
9.88200	0.00000	4466.39100
9.88583	0.00000	4466.39100
9.88970	0.00000	4447.26500
9.89355	0.00000	4447.26500
9.89741	0.00000	4447.26500
9.90127	0.00000	4447.26500
9.90514	0.00000	4447.26500
9.90899	0.00000	4466.39100
9.91283	0.00000	4466.39100
9.91666	0.00000	4466.39100
9.92050	0.00000	4466.39100
9.92436	0.00000	4466.39100
9.92821	0.00000	4466.39100
9.93206	0.00000	4464.84400
9.93591	0.00000	4464.84400
9.93977	0.00000	4464.84400
9.94360	0.00000	4464.84400
9.94743	0.00000	4464.84400
9.95127	0.00000	4463.44300
9.95512	0.00000	4463.44300
9.95896	0.00000	4463.44300
9.96280	0.00000	4463.44300
9.96662	0.00000	4463.44300
9.97046	0.00000	4463.44300
9.97433	0.00000	4478.18400
9.97816	0.00000	4478.18400
9.98200	0.00000	4478.18400
9.98584	0.00000	4478.18400
9.98969	0.00000	4478.18400
9.99353	0.00000	4463.44300
9.99736	0.00000	4463.44300
