Time (s)   Thrust (N)   RPM
0.00030	0.00000	5423.11300
0.00419	0.00000	5423.11300
0.00808	0.00000	5423.11300
0.01192	0.00000	5447.44300
0.01580	0.00000	5447.44300
0.01965	0.00000	5447.44300
0.02358	0.00000	5447.44300
0.02743	0.00000	5447.44300
0.03129	0.00000	5447.44300
0.03513	0.00000	5447.44300
0.03897	0.00000	5255.82800
0.04280	0.00000	5255.82800
0.04663	0.00000	5255.82800
0.05046	0.00000	5255.82800
0.05429	0.00000	5255.82800
0.05812	0.00000	5255.82800
0.06195	0.00000	4864.93600
0.06579	0.00000	4864.93600
0.06961	0.00000	4864.93600
0.07343	0.00000	4864.93600
0.07726	0.00000	4864.93600
0.08109	0.00000	4864.93600
0.08492	0.00000	4593.17800
0.08875	0.00000	4593.17800
0.09257	0.00000	4593.17800
0.09640	0.00000	4593.17800
0.10023	0.00000	4593.17800
0.10406	0.00000	4363.91100
0.10789	0.00000	4363.91100
0.11166	0.00000	4363.91100
0.11549	0.00000	4363.91100
0.11933	0.00000	4363.91100
0.12316	0.00000	4124.37000
0.12699	0.00000	4124.37000
0.13082	0.00000	4124.37000
0.13465	0.00000	4124.37000
0.13848	0.00000	4124.37000
0.14231	0.00000	3948.56700
0.14615	0.00000	3948.56700
0.14998	0.00000	3948.56700
0.15381	0.00000	3948.56700
0.15763	0.00000	3948.56700
0.16146	0.00000	3773.43700
0.16528	0.00000	3773.43700
0.16911	0.00000	3773.43700
0.17295	0.00000	3773.43700
0.17678	0.00000	3642.36100
0.18060	0.00000	3642.36100
0.18444	0.00000	3642.36100
0.18827	0.00000	3642.36100
0.19209	0.00000	3642.36100
0.19592	0.00000	3510.33800
0.19974	0.00000	3510.33800
0.20357	0.00000	3510.33800
0.20740	0.00000	3510.33800
0.21122	0.00000	3404.79600
0.21504	0.00000	3404.79600
0.21888	0.00000	3404.79600
0.22270	0.00000	3404.79600
0.22654	0.00000	3404.79600
0.23037	0.00000	3281.25000
0.23419	0.00000	3281.25000
0.23801	0.00000	3281.25000
0.24183	0.00000	3281.25000
0.24566	0.00000	3191.25000
0.24950	0.00000	3191.25000
0.25332	0.00000	3191.25000
0.25715	0.00000	3191.25000
0.26097	0.00000	3105.94500
0.26479	0.00000	3105.94500
0.26862	0.00000	3105.94500
0.27245	0.00000	3105.94500
0.27629	0.00000	3029.44200
0.28012	0.00000	3029.44200
0.28396	0.00000	3029.44200
0.28778	0.00000	3029.44200
0.29161	0.00000	2966.12400
0.29545	0.00000	2966.12400
0.29928	0.00000	2966.12400
0.30311	0.00000	2966.12400
0.30694	0.00000	2884.00400
0.31076	0.00000	2884.00400
0.31459	0.00000	2884.00400
0.31843	0.00000	2884.00400
0.32226	0.00000	2832.70400
0.32608	0.00000	2832.70400
0.32990	0.00000	2832.70400
0.33372	0.00000	2832.70400
0.33755	0.00000	2759.51100
0.34137	0.00000	2759.51100
0.34519	0.00000	2759.51100
0.34902	0.00000	2759.51100
0.35284	0.00000	2686.14100
0.35667	0.00000	2686.14100
0.36049	0.00000	2686.14100
0.36432	0.00000	2686.14100
0.36814	0.00000	2643.91400
0.37196	0.00000	2643.91400
0.37580	0.00000	2643.91400
0.37962	0.00000	2643.91400
0.38346	0.00000	2592.64300
0.38728	0.00000	2592.64300
0.39111	0.00000	2592.64300
0.39494	0.00000	2592.64300
0.39876	0.00000	2557.19800
0.40258	0.00000	2557.19800
0.40641	0.00000	2557.19800
0.41023	0.00000	2557.19800
0.41405	0.00000	2498.60500
0.41787	0.00000	2498.60500
0.42169	0.00000	2498.60500
0.42552	0.00000	2498.60500
0.42934	0.00000	2461.99300
0.43317	0.00000	2461.99300
0.43699	0.00000	2461.99300
0.44081	0.00000	2461.99300
0.44463	0.00000	2428.97700
0.44846	0.00000	2428.97700
0.45228	0.00000	2428.97700
0.45611	0.00000	2386.75400
0.45994	0.00000	2386.75400
0.46377	0.00000	2386.75400
0.46759	0.00000	2386.75400
0.47143	0.00000	2356.65100
0.47526	0.00000	2356.65100
0.47909	0.00000	2356.65100
0.48291	0.00000	2356.65100
0.48673	0.00000	2313.64700
0.49055	0.00000	2313.64700
0.49438	0.00000	2313.64700
0.49820	0.00000	2313.64700
0.50202	0.00000	2291.66600
0.50584	0.00000	2291.66600
0.50967	0.00000	2291.66600
0.51349	0.00000	2264.89400
0.51731	0.00000	2264.89400
0.52113	0.00000	2264.89400
0.52495	0.00000	2264.89400
0.52878	0.00000	2238.60900
0.53260	0.00000	2238.60900
0.53643	0.00000	2238.60900
0.54025	0.00000	2238.60900
0.54408	0.00000	2212.32400
0.54790	0.00000	2212.32400
0.55173	0.00000	2212.32400
0.55557	0.00000	2180.12900
0.55939	0.00000	2180.12900
0.56321	0.00000	2180.12900
0.56704	0.00000	2180.12900
0.57087	0.00000	2171.28500
0.57469	0.00000	2171.28500
0.57852	0.00000	2171.28500
0.58235	0.00000	2171.28500
0.58617	0.00000	2156.25000
0.59000	0.00000	2156.25000
0.59382	0.00000	2156.25000
0.59764	0.00000	2120.53500
0.60148	0.00000	2120.53500
0.60531	0.00000	2120.53500
0.60913	0.00000	2120.53500
0.61296	0.00000	2102.67800
0.61678	0.00000	2102.67800
0.62060	0.00000	2102.67800
0.62442	0.00000	2091.34600
0.62824	0.00000	2091.34600
0.63206	0.00000	2091.34600
0.63588	0.00000	2091.34600
0.63966	0.00000	2059.79500
0.64349	0.00000	2059.79500
0.64731	0.00000	2059.79500
0.65113	0.00000	2059.79500
0.65495	0.00000	2035.71400
0.65877	0.00000	2035.71400
0.66260	0.00000	2035.71400
0.66642	0.00000	2038.83500
0.67024	0.00000	2038.83500
0.67407	0.00000	2038.83500
0.67789	0.00000	2038.83500
0.68172	0.00000	2014.72300
0.68558	0.00000	2014.72300
0.68941	0.00000	2014.72300
0.69324	0.00000	2002.42700
0.69706	0.00000	2002.42700
0.70088	0.00000	2002.42700
0.70470	0.00000	2002.42700
0.70853	0.00000	1984.22300
0.71235	0.00000	1984.22300
0.71618	0.00000	1984.22300
0.72001	0.00000	1984.22300
0.72383	0.00000	1956.12900
0.72767	0.00000	1956.12900
0.73149	0.00000	1956.12900
0.73532	0.00000	1947.81500
0.73913	0.00000	1947.81500
0.74296	0.00000	1947.81500
0.74678	0.00000	1947.81500
0.75060	0.00000	1947.81500
0.75443	0.00000	1947.81500
0.75825	0.00000	1947.81500
0.76207	0.00000	1934.74200
0.76589	0.00000	1934.74200
0.76973	0.00000	1934.74200
0.77355	0.00000	1934.74200
0.77736	0.00000	1934.74200
0.78119	0.00000	1934.74200
0.78501	0.00000	1934.74200
0.78884	0.00000	1911.76400
0.79266	0.00000	1911.76400
0.79648	0.00000	1911.76400
0.80031	0.00000	1911.76400
0.80414	0.00000	1911.76400
0.80796	0.00000	1911.76400
0.81178	0.00000	1911.76400
0.81560	0.00000	1907.48700
0.81943	0.00000	1907.48700
0.82329	0.00000	1907.48700
0.82713	0.00000	1907.48700
0.83096	0.00000	1884.19100
0.83478	0.00000	1884.19100
0.83862	0.00000	1884.19100
0.84244	0.00000	1879.64100
0.84628	0.00000	1879.64100
0.85010	0.00000	1879.64100
0.85392	0.00000	1879.64100
0.85776	0.00000	1865.80800
0.86158	0.00000	1865.80800
0.86540	0.00000	1865.80800
0.86923	0.00000	1856.43500
0.87308	0.00000	1856.43500
0.87691	0.00000	1856.43500
0.88073	0.00000	1856.43500
0.88459	0.00000	1861.07600
0.88851	0.00000	1861.07600
0.89238	0.00000	1861.07600
0.89620	0.00000	1837.87100
0.90003	0.00000	1837.87100
0.90386	0.00000	1837.87100
0.90766	0.00000	1837.87100
0.91149	0.00000	1847.15300
0.91532	0.00000	1847.15300
0.91914	0.00000	1847.15300
0.92298	0.00000	1819.30700
0.92682	0.00000	1819.30700
0.93064	0.00000	1819.30700
0.93447	0.00000	1819.30700
0.93831	0.00000	1806.06600
0.94213	0.00000	1806.06600
0.94596	0.00000	1806.06600
0.94978	0.00000	1805.38300
0.95360	0.00000	1805.38300
0.95742	0.00000	1805.38300
0.96124	0.00000	1805.38300
0.96507	0.00000	1810.02400
0.96890	0.00000	1810.02400
0.97273	0.00000	1810.02400
0.97656	0.00000	1791.46000
0.98038	0.00000	1791.46000
0.98420	0.00000	1791.46000
0.98802	0.00000	1791.46000
0.99184	0.00000	1796.10100
0.99566	0.00000	1796.10100
0.99949	0.00000	1796.10100
1.00331	0.00000	1800.00000
1.00713	0.00000	1800.00000
1.01096	0.00000	1800.00000
1.01478	0.00000	1800.00000
1.01860	0.00000	1786.81900
1.02243	0.00000	1786.81900
1.02625	0.00000	1786.81900
1.03009	0.00000	1781.25000
1.03391	0.00000	1781.25000
1.03774	0.00000	1781.25000
1.04156	0.00000	1781.25000
1.04539	0.00000	1772.89600
1.04922	0.00000	1772.89600
1.05304	0.00000	1772.89600
1.05687	0.00000	1771.87500
1.06070	0.00000	1771.87500
1.06452	0.00000	1771.87500
1.06835	0.00000	1771.87500
1.07217	0.00000	1776.56200
1.07600	0.00000	1776.56200
1.07982	0.00000	1776.56200
1.08364	0.00000	1767.18700
1.08748	0.00000	1767.18700
1.09130	0.00000	1767.18700
1.09513	0.00000	1757.81200
1.09895	0.00000	1757.81200
1.10277	0.00000	1757.81200
1.10658	0.00000	1757.81200
1.11041	0.00000	1757.81200
1.11423	0.00000	1757.81200
1.11805	0.00000	1757.81200
1.12188	0.00000	1753.12500
1.12572	0.00000	1753.12500
1.12954	0.00000	1753.12500
1.13336	0.00000	1753.12500
1.13720	0.00000	1753.12500
1.14102	0.00000	1753.12500
1.14487	0.00000	1753.12500
1.14872	0.00000	1748.43700
1.15255	0.00000	1748.43700
1.15638	0.00000	1748.43700
1.16020	0.00000	1748.43700
1.16403	0.00000	1748.43700
1.16785	0.00000	1748.43700
1.17166	0.00000	1748.43700
1.17549	0.00000	1751.89400
1.17930	0.00000	1751.89400
1.18313	0.00000	1751.89400
1.18696	0.00000	1751.89400
1.19078	0.00000	1743.75000
1.19460	0.00000	1743.75000
1.19843	0.00000	1743.75000
1.20225	0.00000	1742.42400
1.20607	0.00000	1742.42400
1.20989	0.00000	1742.42400
1.21371	0.00000	1742.42400
1.21753	0.00000	1739.06200
1.22135	0.00000	1739.06200
1.22517	0.00000	1739.06200
1.22899	0.00000	1720.31200
1.23281	0.00000	1720.31200
1.23663	0.00000	1720.31200
1.24045	0.00000	1742.42400
1.24427	0.00000	1742.42400
1.24809	0.00000	1742.42400
1.25192	0.00000	1742.42400
1.25574	0.00000	1720.31200
1.25957	0.00000	1720.31200
1.26338	0.00000	1720.31200
1.26720	0.00000	1728.21900
1.27104	0.00000	1728.21900
1.27485	0.00000	1728.21900
1.27868	0.00000	1728.21900
1.28251	0.00000	1729.68700
1.28633	0.00000	1729.68700
1.29016	0.00000	1729.68700
1.29398	0.00000	1723.48400
1.29780	0.00000	1723.48400
1.30162	0.00000	1723.48400
1.30544	0.00000	1723.48400
1.30926	0.00000	1715.62500
1.31308	0.00000	1715.62500
1.31690	0.00000	1715.62500
1.32073	0.00000	1728.21900
1.32455	0.00000	1728.21900
1.32838	0.00000	1728.21900
1.33219	0.00000	1728.21900
1.33601	0.00000	1710.93700
1.33984	0.00000	1710.93700
1.34366	0.00000	1710.93700
1.34748	0.00000	1701.56200
1.35130	0.00000	1701.56200
1.35513	0.00000	1701.56200
1.35895	0.00000	1718.75000
1.36277	0.00000	1718.75000
1.36659	0.00000	1718.75000
1.37041	0.00000	1718.75000
1.37423	0.00000	1714.01500
1.37805	0.00000	1714.01500
1.38188	0.00000	1714.01500
1.38570	0.00000	1696.87500
1.38953	0.00000	1696.87500
1.39335	0.00000	1696.87500
1.39717	0.00000	1696.87500
1.40099	0.00000	1706.25000
1.40481	0.00000	1706.25000
1.40865	0.00000	1706.25000
1.41247	0.00000	1714.01500
1.41630	0.00000	1714.01500
1.42012	0.00000	1714.01500
1.42394	0.00000	1714.01500
1.42776	0.00000	1701.56200
1.43158	0.00000	1701.56200
1.43541	0.00000	1701.56200
1.43922	0.00000	1704.54500
1.44305	0.00000	1704.54500
1.44687	0.00000	1704.54500
1.45070	0.00000	1704.54500
1.45452	0.00000	1714.01500
1.45834	0.00000	1714.01500
1.46216	0.00000	1714.01500
1.46599	0.00000	1709.28000
1.46982	0.00000	1709.28000
1.47364	0.00000	1709.28000
1.47747	0.00000	1699.81000
1.48129	0.00000	1699.81000
1.48512	0.00000	1699.81000
1.48894	0.00000	1699.81000
1.49276	0.00000	1709.28000
1.49658	0.00000	1709.28000
1.50040	0.00000	1709.28000
1.50422	0.00000	1704.54500
1.50804	0.00000	1704.54500
1.51187	0.00000	1704.54500
1.51566	0.00000	1704.54500
1.51949	0.00000	1714.01500
1.52331	0.00000	1714.01500
1.52713	0.00000	1714.01500
1.53095	0.00000	1699.81000
1.53478	0.00000	1699.81000
1.53861	0.00000	1699.81000
1.54243	0.00000	1699.81000
1.54625	0.00000	1692.18700
1.55008	0.00000	1692.18700
1.55389	0.00000	1692.18700
1.55772	0.00000	1699.81000
1.56154	0.00000	1699.81000
1.56536	0.00000	1699.81000
1.56918	0.00000	1695.07500
1.57300	0.00000	1695.07500
1.57683	0.00000	1695.07500
1.58065	0.00000	1695.07500
1.58447	0.00000	1699.81000
1.58829	0.00000	1699.81000
1.59211	0.00000	1699.81000
1.59594	0.00000	1695.07500
1.59978	0.00000	1695.07500
1.60360	0.00000	1695.07500
1.60742	0.00000	1695.07500
1.61124	0.00000	1704.54500
1.61506	0.00000	1704.54500
1.61889	0.00000	1704.54500
1.62272	0.00000	1707.58900
1.62655	0.00000	1707.58900
1.63038	0.00000	1707.58900
1.63420	0.00000	1707.58900
1.63802	0.00000	1704.54500
1.64185	0.00000	1704.54500
1.64567	0.00000	1704.54500
1.64950	0.00000	1707.58900
1.65332	0.00000	1707.58900
1.65713	0.00000	1707.58900
1.66096	0.00000	1690.34000
1.66478	0.00000	1690.34000
1.66860	0.00000	1690.34000
1.67242	0.00000	1690.34000
1.67625	0.00000	1695.07500
1.68007	0.00000	1695.07500
1.68389	0.00000	1695.07500
1.68766	0.00000	1690.34000
1.69149	0.00000	1690.34000
1.69531	0.00000	1690.34000
1.69914	0.00000	1690.34000
1.70297	0.00000	1699.81000
1.70679	0.00000	1699.81000
1.71061	0.00000	1699.81000
1.71443	0.00000	1690.34000
1.71825	0.00000	1690.34000
1.72207	0.00000	1690.34000
1.72589	0.00000	1690.34000
1.72971	0.00000	1699.81000
1.73354	0.00000	1699.81000
1.73737	0.00000	1699.81000
1.74119	0.00000	1685.60600
1.74501	0.00000	1685.60600
1.74884	0.00000	1685.60600
1.75267	0.00000	1685.60600
1.75649	0.00000	1685.60600
1.76031	0.00000	1685.60600
1.76413	0.00000	1685.60600
1.76795	0.00000	1702.80600
1.77177	0.00000	1702.80600
1.77559	0.00000	1702.80600
1.77941	0.00000	1685.60600
1.78323	0.00000	1685.60600
1.78705	0.00000	1685.60600
1.79087	0.00000	1685.60600
1.79470	0.00000	1695.07500
1.79852	0.00000	1695.07500
1.80234	0.00000	1695.07500
1.80616	0.00000	1685.60600
1.80998	0.00000	1685.60600
1.81380	0.00000	1685.60600
1.81762	0.00000	1685.60600
1.82145	0.00000	1695.07500
1.82527	0.00000	1695.07500
1.82909	0.00000	1695.07500
1.83291	0.00000	1698.02300
1.83674	0.00000	1698.02300
1.84056	0.00000	1698.02300
1.84438	0.00000	1698.02300
1.84820	0.00000	1685.60600
1.85202	0.00000	1685.60600
1.85583	0.00000	1685.60600
1.85965	0.00000	1680.87100
1.86348	0.00000	1680.87100
1.86731	0.00000	1680.87100
1.87112	0.00000	1680.87100
1.87495	0.00000	1680.87100
1.87877	0.00000	1680.87100
1.88259	0.00000	1680.87100
1.88640	0.00000	1690.34000
1.89023	0.00000	1690.34000
1.89405	0.00000	1690.34000
1.89787	0.00000	1680.87100
1.90169	0.00000	1680.87100
1.90552	0.00000	1680.87100
1.90934	0.00000	1680.87100
1.91316	0.00000	1673.43700
1.91698	0.00000	1673.43700
1.92079	0.00000	1673.43700
1.92461	0.00000	1680.87100
1.92843	0.00000	1680.87100
1.93225	0.00000	1680.87100
1.93607	0.00000	1680.87100
1.93990	0.00000	1680.87100
1.94372	0.00000	1680.87100
1.94754	0.00000	1680.87100
1.95136	0.00000	1680.87100
1.95519	0.00000	1680.87100
1.95901	0.00000	1680.87100
1.96283	0.00000	1676.13600
1.96665	0.00000	1676.13600
1.97047	0.00000	1676.13600
1.97430	0.00000	1676.13600
1.97813	0.00000	1690.34000
1.98195	0.00000	1690.34000
1.98577	0.00000	1690.34000
1.98960	0.00000	1693.23900
1.99342	0.00000	1693.23900
1.99724	0.00000	1693.23900
2.00107	0.00000	1693.23900
2.00490	0.00000	1690.34000
2.00871	0.00000	1690.34000
2.01253	0.00000	1690.34000
2.01635	0.00000	1676.13600
2.02017	0.00000	1676.13600
2.02399	0.00000	1676.13600
2.02781	0.00000	1676.13600
2.03163	0.00000	1685.60600
2.03547	0.00000	1685.60600
2.03929	0.00000	1685.60600
2.04312	0.00000	1676.13600
2.04694	0.00000	1676.13600
2.05076	0.00000	1676.13600
2.05458	0.00000	1676.13600
2.05843	0.00000	1676.13600
2.06225	0.00000	1676.13600
2.06607	0.00000	1676.13600
2.06989	0.00000	1668.75000
2.07371	0.00000	1668.75000
2.07753	0.00000	1668.75000
2.08136	0.00000	1676.13600
2.08518	0.00000	1676.13600
2.08901	0.00000	1676.13600
2.09283	0.00000	1676.13600
2.09665	0.00000	1690.34000
2.10047	0.00000	1690.34000
2.10429	0.00000	1690.34000
2.10811	0.00000	1693.23900
2.11194	0.00000	1693.23900
2.11576	0.00000	1693.23900
2.11957	0.00000	1676.13600
2.12339	0.00000	1676.13600
2.12721	0.00000	1676.13600
2.13104	0.00000	1676.13600
2.13487	0.00000	1676.13600
2.13869	0.00000	1676.13600
2.14251	0.00000	1676.13600
2.14633	0.00000	1676.13600
2.15015	0.00000	1676.13600
2.15397	0.00000	1676.13600
2.15780	0.00000	1676.13600
2.16162	0.00000	1668.75000
2.16545	0.00000	1668.75000
2.16927	0.00000	1668.75000
2.17310	0.00000	1676.13600
2.17692	0.00000	1676.13600
2.18073	0.00000	1676.13600
2.18455	0.00000	1676.13600
2.18837	0.00000	1680.87100
2.19219	0.00000	1680.87100
2.19601	0.00000	1680.87100
2.19983	0.00000	1676.13600
2.20365	0.00000	1676.13600
2.20747	0.00000	1676.13600
2.21129	0.00000	1676.13600
2.21511	0.00000	1676.13600
2.21894	0.00000	1676.13600
2.22279	0.00000	1676.13600
2.22661	0.00000	1676.13600
2.23042	0.00000	1676.13600
2.23425	0.00000	1676.13600
2.23807	0.00000	1688.45600
2.24190	0.00000	1688.45600
2.24572	0.00000	1688.45600
2.24954	0.00000	1688.45600
2.25337	0.00000	1685.60600
2.25718	0.00000	1685.60600
2.26102	0.00000	1685.60600
2.26484	0.00000	1671.40100
2.26866	0.00000	1671.40100
2.27248	0.00000	1671.40100
2.27631	0.00000	1671.40100
2.28012	0.00000	1685.60600
2.28394	0.00000	1685.60600
2.28776	0.00000	1685.60600
2.29158	0.00000	1671.40100
2.29540	0.00000	1671.40100
2.29923	0.00000	1671.40100
2.30304	0.00000	1671.40100
2.30687	0.00000	1671.40100
2.31069	0.00000	1671.40100
2.31452	0.00000	1671.40100
2.31835	0.00000	1676.13600
2.32216	0.00000	1676.13600
2.32599	0.00000	1676.13600
2.32981	0.00000	1671.40100
2.33363	0.00000	1671.40100
2.33745	0.00000	1671.40100
2.34127	0.00000	1671.40100
2.34509	0.00000	1668.75000
2.34892	0.00000	1668.75000
2.35274	0.00000	1668.75000
2.35656	0.00000	1671.40100
2.36038	0.00000	1671.40100
2.36420	0.00000	1671.40100
2.36802	0.00000	1671.40100
2.37183	0.00000	1676.13600
2.37565	0.00000	1676.13600
2.37949	0.00000	1676.13600
2.38331	0.00000	1688.45600
2.38713	0.00000	1688.45600
2.39095	0.00000	1688.45600
2.39477	0.00000	1693.23900
2.39859	0.00000	1693.23900
2.40242	0.00000	1693.23900
2.40623	0.00000	1693.23900
2.41005	0.00000	1676.13600
2.41387	0.00000	1676.13600
2.41769	0.00000	1676.13600
2.42151	0.00000	1676.13600
2.42533	0.00000	1676.13600
2.42915	0.00000	1676.13600
2.43297	0.00000	1676.13600
2.43679	0.00000	1668.75000
2.44062	0.00000	1668.75000
2.44444	0.00000	1668.75000
2.44826	0.00000	1676.13600
2.45208	0.00000	1676.13600
2.45591	0.00000	1676.13600
2.45973	0.00000	1676.13600
2.46355	0.00000	1680.87100
2.46737	0.00000	1680.87100
2.47119	0.00000	1680.87100
2.47501	0.00000	1688.45600
2.47883	0.00000	1688.45600
2.48265	0.00000	1688.45600
2.48647	0.00000	1693.23900
2.49029	0.00000	1693.23900
2.49412	0.00000	1693.23900
2.49795	0.00000	1693.23900
2.50177	0.00000	1680.87100
2.50559	0.00000	1680.87100
2.50941	0.00000	1680.87100
2.51323	0.00000	1671.40100
2.51706	0.00000	1671.40100
2.52088	0.00000	1671.40100
2.52471	0.00000	1671.40100
2.52853	0.00000	1668.75000
2.53235	0.00000	1668.75000
2.53618	0.00000	1668.75000
2.53999	0.00000	1671.40100
2.54382	0.00000	1671.40100
2.54765	0.00000	1671.40100
2.55148	0.00000	1671.40100
2.55529	0.00000	1671.40100
2.55911	0.00000	1671.40100
2.56294	0.00000	1671.40100
2.56676	0.00000	1693.23900
2.57058	0.00000	1693.23900
2.57440	0.00000	1693.23900
2.57822	0.00000	1693.23900
2.58205	0.00000	1693.23900
2.58587	0.00000	1693.23900
2.58969	0.00000	1693.23900
2.59351	0.00000	1680.87100
2.59733	0.00000	1680.87100
2.60115	0.00000	1680.87100
2.60497	0.00000	1671.40100
2.60879	0.00000	1671.40100
2.61261	0.00000	1671.40100
2.61643	0.00000	1671.40100
2.62025	0.00000	1664.06200
2.62407	0.00000	1664.06200
2.62789	0.00000	1664.06200
2.63171	0.00000	1671.40100
2.63555	0.00000	1671.40100
2.63936	0.00000	1671.40100
2.64318	0.00000	1671.40100
2.64700	0.00000	1676.13600
2.65082	0.00000	1676.13600
2.65465	0.00000	1676.13600
2.65848	0.00000	1671.40100
2.66230	0.00000	1671.40100
2.66612	0.00000	1671.40100
2.66994	0.00000	1676.13600
2.67376	0.00000	1676.13600
2.67758	0.00000	1676.13600
2.68140	0.00000	1676.13600
2.68522	0.00000	1664.06200
2.68904	0.00000	1664.06200
2.69286	0.00000	1664.06200
2.69668	0.00000	1671.40100
2.70050	0.00000	1671.40100
2.70432	0.00000	1671.40100
2.70815	0.00000	1671.40100
2.71197	0.00000	1685.60600
2.71579	0.00000	1685.60600
2.71961	0.00000	1685.60600
2.72344	0.00000	1688.45600
2.72727	0.00000	1688.45600
2.73110	0.00000	1688.45600
2.73491	0.00000	1693.23900
2.73873	0.00000	1693.23900
2.74255	0.00000	1693.23900
2.74638	0.00000	1693.23900
2.75020	0.00000	1676.13600
2.75402	0.00000	1676.13600
2.75784	0.00000	1676.13600
2.76166	0.00000	1671.40100
2.76550	0.00000	1671.40100
2.76931	0.00000	1671.40100
2.77314	0.00000	1671.40100
2.77696	0.00000	1673.43700
2.78078	0.00000	1673.43700
2.78460	0.00000	1673.43700
2.78841	0.00000	1676.13600
2.79224	0.00000	1676.13600
2.79607	0.00000	1676.13600
2.79989	0.00000	1676.13600
2.80366	0.00000	1680.87100
2.80749	0.00000	1680.87100
2.81131	0.00000	1680.87100
2.81513	0.00000	1688.45600
2.81895	0.00000	1688.45600
2.82277	0.00000	1688.45600
2.82660	0.00000	1688.45600
2.83042	0.00000	1688.45600
2.83424	0.00000	1688.45600
2.83806	0.00000	1688.45600
2.84189	0.00000	1676.13600
2.84571	0.00000	1676.13600
2.84954	0.00000	1676.13600
2.85336	0.00000	1676.13600
2.85719	0.00000	1676.13600
2.86102	0.00000	1676.13600
2.86484	0.00000	1676.13600
2.86867	0.00000	1668.75000
2.87249	0.00000	1668.75000
2.87631	0.00000	1668.75000
2.88013	0.00000	1671.40100
2.88396	0.00000	1671.40100
2.88777	0.00000	1671.40100
2.89160	0.00000	1671.40100
2.89541	0.00000	1685.60600
2.89924	0.00000	1685.60600
2.90306	0.00000	1685.60600
2.90688	0.00000	1683.67300
2.91070	0.00000	1683.67300
2.91453	0.00000	1683.67300
2.91835	0.00000	1693.23900
2.92216	0.00000	1693.23900
2.92598	0.00000	1693.23900
2.92981	0.00000	1693.23900
2.93363	0.00000	1680.87100
2.93745	0.00000	1680.87100
2.94127	0.00000	1680.87100
2.94509	0.00000	1676.13600
2.94892	0.00000	1676.13600
2.95274	0.00000	1676.13600
2.95656	0.00000	1676.13600
2.96038	0.00000	1668.75000
2.96421	0.00000	1668.75000
2.96803	0.00000	1668.75000
2.97185	0.00000	1671.40100
2.97566	0.00000	1671.40100
2.97949	0.00000	1671.40100
2.98332	0.00000	1671.40100
2.98714	0.00000	1685.60600
2.99096	0.00000	1685.60600
2.99479	0.00000	1685.60600
2.99861	0.00000	1693.23900
3.00243	0.00000	1693.23900
3.00625	0.00000	1693.23900
3.01007	0.00000	1693.23900
3.01388	0.00000	1693.23900
3.01771	0.00000	1693.23900
3.02152	0.00000	1693.23900
3.02534	0.00000	1676.13600
3.02916	0.00000	1676.13600
3.03298	0.00000	1676.13600
3.03680	0.00000	1676.13600
3.04062	0.00000	1676.13600
3.04444	0.00000	1676.13600
3.04825	0.00000	1676.13600
3.05208	0.00000	1664.06200
3.05590	0.00000	1664.06200
3.05972	0.00000	1664.06200
3.06354	0.00000	1671.40100
3.06736	0.00000	1671.40100
3.07118	0.00000	1671.40100
3.07500	0.00000	1671.40100
3.07882	0.00000	1680.87100
3.08264	0.00000	1680.87100
3.08646	0.00000	1680.87100
3.09029	0.00000	1693.23900
3.09410	0.00000	1693.23900
3.09792	0.00000	1693.23900
3.10174	0.00000	1688.45600
3.10556	0.00000	1688.45600
3.10938	0.00000	1688.45600
3.11320	0.00000	1688.45600
3.11702	0.00000	1676.13600
3.12084	0.00000	1676.13600
3.12466	0.00000	1676.13600
3.12848	0.00000	1671.40100
3.13232	0.00000	1671.40100
3.13614	0.00000	1671.40100
3.13996	0.00000	1671.40100
3.14378	0.00000	1668.75000
3.14759	0.00000	1668.75000
3.15142	0.00000	1668.75000
3.15524	0.00000	1671.40100
3.15907	0.00000	1671.40100
3.16289	0.00000	1671.40100
3.16672	0.00000	1671.40100
3.17055	0.00000	1680.87100
3.17437	0.00000	1680.87100
3.17818	0.00000	1680.87100
3.18201	0.00000	1693.23900
3.18583	0.00000	1693.23900
3.18965	0.00000	1693.23900
3.19348	0.00000	1688.45600
3.19730	0.00000	1688.45600
3.20113	0.00000	1688.45600
3.20495	0.00000	1688.45600
3.20878	0.00000	1685.60600
3.21259	0.00000	1685.60600
3.21641	0.00000	1685.60600
3.22024	0.00000	1666.66600
3.22406	0.00000	1666.66600
3.22788	0.00000	1666.66600
3.23167	0.00000	1666.66600
3.23549	0.00000	1668.75000
3.23931	0.00000	1668.75000
3.24313	0.00000	1668.75000
3.24696	0.00000	1676.13600
3.25078	0.00000	1676.13600
3.25461	0.00000	1676.13600
3.25843	0.00000	1676.13600
3.26225	0.00000	1680.87100
3.26606	0.00000	1680.87100
3.26989	0.00000	1680.87100
3.27371	0.00000	1693.23900
3.27753	0.00000	1693.23900
3.28135	0.00000	1693.23900
3.28518	0.00000	1693.23900
3.28900	0.00000	1693.23900
3.29283	0.00000	1693.23900
3.29665	0.00000	1693.23900
3.30047	0.00000	1680.87100
3.30429	0.00000	1680.87100
3.30811	0.00000	1680.87100
3.31192	0.00000	1676.13600
3.31574	0.00000	1676.13600
3.31956	0.00000	1676.13600
3.32338	0.00000	1676.13600
3.32721	0.00000	1668.75000
3.33103	0.00000	1668.75000
3.33486	0.00000	1668.75000
3.33868	0.00000	1671.40100
3.34250	0.00000	1671.40100
3.34632	0.00000	1671.40100
3.35013	0.00000	1671.40100
3.35396	0.00000	1676.13600
3.35778	0.00000	1676.13600
3.36161	0.00000	1676.13600
3.36543	0.00000	1693.23900
3.36924	0.00000	1693.23900
3.37306	0.00000	1693.23900
3.37689	0.00000	1688.45600
3.38071	0.00000	1688.45600
3.38453	0.00000	1688.45600
3.38835	0.00000	1688.45600
3.39217	0.00000	1680.87100
3.39600	0.00000	1680.87100
3.39983	0.00000	1680.87100
3.40365	0.00000	1671.40100
3.40748	0.00000	1671.40100
3.41130	0.00000	1671.40100
3.41512	0.00000	1671.40100
3.41895	0.00000	1668.75000
3.42277	0.00000	1668.75000
3.42659	0.00000	1668.75000
3.43041	0.00000	1676.13600
3.43423	0.00000	1676.13600
3.43805	0.00000	1676.13600
3.44187	0.00000	1676.13600
3.44568	0.00000	1676.13600
3.44950	0.00000	1676.13600
3.45332	0.00000	1676.13600
3.45716	0.00000	1693.23900
3.46099	0.00000	1693.23900
3.46481	0.00000	1693.23900
3.46863	0.00000	1688.45600
3.47245	0.00000	1688.45600
3.47627	0.00000	1688.45600
3.48009	0.00000	1688.45600
3.48391	0.00000	1680.87100
3.48772	0.00000	1680.87100
3.49154	0.00000	1680.87100
3.49537	0.00000	1676.13600
3.49919	0.00000	1676.13600
3.50301	0.00000	1676.13600
3.50685	0.00000	1676.13600
3.51067	0.00000	1664.06200
3.51449	0.00000	1664.06200
3.51831	0.00000	1664.06200
3.52212	0.00000	1671.40100
3.52594	0.00000	1671.40100
3.52976	0.00000	1671.40100
3.53359	0.00000	1676.13600
3.53742	0.00000	1676.13600
3.54124	0.00000	1676.13600
3.54507	0.00000	1676.13600
3.54889	0.00000	1676.13600
3.55271	0.00000	1676.13600
3.55653	0.00000	1676.13600
3.56035	0.00000	1671.40100
3.56417	0.00000	1671.40100
3.56799	0.00000	1671.40100
3.57182	0.00000	1671.40100
3.57563	0.00000	1664.06200
3.57945	0.00000	1664.06200
3.58327	0.00000	1664.06200
3.58709	0.00000	1671.40100
3.59092	0.00000	1671.40100
3.59473	0.00000	1671.40100
3.59855	0.00000	1671.40100
3.60237	0.00000	1685.60600
3.60619	0.00000	1685.60600
3.61001	0.00000	1685.60600
3.61383	0.00000	1688.45600
3.61765	0.00000	1688.45600
3.62147	0.00000	1688.45600
3.62529	0.00000	1688.45600
3.62911	0.00000	1688.45600
3.63293	0.00000	1688.45600
3.63676	0.00000	1688.45600
3.64058	0.00000	1676.13600
3.64440	0.00000	1676.13600
3.64823	0.00000	1676.13600
3.65205	0.00000	1671.40100
3.65587	0.00000	1671.40100
3.65967	0.00000	1671.40100
3.66349	0.00000	1671.40100
3.66730	0.00000	1668.75000
3.67112	0.00000	1668.75000
3.67494	0.00000	1668.75000
3.67877	0.00000	1676.13600
3.68259	0.00000	1676.13600
3.68641	0.00000	1676.13600
3.69024	0.00000	1676.13600
3.69406	0.00000	1685.60600
3.69793	0.00000	1685.60600
3.70176	0.00000	1685.60600
3.70559	0.00000	1688.45600
3.70941	0.00000	1688.45600
3.71324	0.00000	1688.45600
3.71706	0.00000	1688.45600
3.72088	0.00000	1688.45600
3.72470	0.00000	1688.45600
3.72852	0.00000	1688.45600
3.73235	0.00000	1676.13600
3.73617	0.00000	1676.13600
3.73999	0.00000	1676.13600
3.74381	0.00000	1676.13600
3.74763	0.00000	1676.13600
3.75146	0.00000	1676.13600
3.75528	0.00000	1676.13600
3.75910	0.00000	1668.75000
3.76292	0.00000	1668.75000
3.76675	0.00000	1668.75000
3.77057	0.00000	1676.13600
3.77438	0.00000	1676.13600
3.77820	0.00000	1676.13600
3.78203	0.00000	1676.13600
3.78585	0.00000	1685.60600
3.78967	0.00000	1685.60600
3.79350	0.00000	1685.60600
3.79732	0.00000	1693.23900
3.80114	0.00000	1693.23900
3.80496	0.00000	1693.23900
3.80878	0.00000	1688.45600
3.81261	0.00000	1688.45600
3.81644	0.00000	1688.45600
3.82025	0.00000	1688.45600
3.82407	0.00000	1676.13600
3.82790	0.00000	1676.13600
3.83171	0.00000	1676.13600
3.83553	0.00000	1671.40100
3.83935	0.00000	1671.40100
3.84317	0.00000	1671.40100
3.84700	0.00000	1671.40100
3.85082	0.00000	1668.75000
3.85464	0.00000	1668.75000
3.85847	0.00000	1668.75000
3.86229	0.00000	1671.40100
3.86612	0.00000	1671.40100
3.86994	0.00000	1671.40100
3.87376	0.00000	1671.40100
3.87758	0.00000	1676.13600
3.88141	0.00000	1676.13600
3.88523	0.00000	1676.13600
3.88905	0.00000	1688.45600
3.89286	0.00000	1688.45600
3.89669	0.00000	1688.45600
3.90051	0.00000	1693.23900
3.90435	0.00000	1693.23900
3.90817	0.00000	1693.23900
3.91198	0.00000	1693.23900
3.91581	0.00000	1680.87100
3.91963	0.00000	1680.87100
3.92345	0.00000	1680.87100
3.92727	0.00000	1676.13600
3.93109	0.00000	1676.13600
3.93491	0.00000	1676.13600
3.93873	0.00000	1676.13600
3.94255	0.00000	1664.06200
3.94637	0.00000	1664.06200
3.95019	0.00000	1664.06200
3.95402	0.00000	1671.40100
3.95785	0.00000	1671.40100
3.96167	0.00000	1671.40100
3.96548	0.00000	1671.40100
3.96930	0.00000	1676.13600
3.97313	0.00000	1676.13600
3.97695	0.00000	1676.13600
3.98077	0.00000	1693.23900
3.98459	0.00000	1693.23900
3.98840	0.00000	1693.23900
3.99223	0.00000	1693.23900
3.99606	0.00000	1693.23900
3.99988	0.00000	1693.23900
4.00366	0.00000	1693.23900
4.00748	0.00000	1685.60600
4.01130	0.00000	1685.60600
4.01513	0.00000	1685.60600
4.01895	0.00000	1671.40100
4.02277	0.00000	1671.40100
4.02659	0.00000	1671.40100
4.03040	0.00000	1671.40100
4.03422	0.00000	1673.43700
4.03805	0.00000	1673.43700
4.04187	0.00000	1673.43700
4.04570	0.00000	1676.13600
4.04952	0.00000	1676.13600
4.05334	0.00000	1676.13600
4.05716	0.00000	1676.13600
4.06099	0.00000	1676.13600
4.06480	0.00000	1676.13600
4.06863	0.00000	1676.13600
4.07246	0.00000	1693.23900
4.07628	0.00000	1693.23900
4.08010	0.00000	1693.23900
4.08392	0.00000	1688.45600
4.08774	0.00000	1688.45600
4.09157	0.00000	1688.45600
4.09538	0.00000	1688.45600
4.09921	0.00000	1685.60600
4.10304	0.00000	1685.60600
4.10686	0.00000	1685.60600
4.11068	0.00000	1676.13600
4.11450	0.00000	1676.13600
4.11833	0.00000	1676.13600
4.12214	0.00000	1676.13600
4.12597	0.00000	1664.06200
4.12979	0.00000	1664.06200
4.13361	0.00000	1664.06200
4.13743	0.00000	1676.13600
4.14125	0.00000	1676.13600
4.14507	0.00000	1676.13600
4.14889	0.00000	1676.13600
4.15271	0.00000	1676.13600
4.15653	0.00000	1676.13600
4.16035	0.00000	1676.13600
4.16416	0.00000	1693.23900
4.16798	0.00000	1693.23900
4.17180	0.00000	1693.23900
4.17562	0.00000	1693.23900
4.17945	0.00000	1693.23900
4.18327	0.00000	1693.23900
4.18709	0.00000	1693.23900
4.19091	0.00000	1685.60600
4.19473	0.00000	1685.60600
4.19855	0.00000	1685.60600
4.20237	0.00000	1676.13600
4.20619	0.00000	1676.13600
4.21002	0.00000	1676.13600
4.21384	0.00000	1676.13600
4.21766	0.00000	1668.75000
4.22148	0.00000	1668.75000
4.22530	0.00000	1668.75000
4.22913	0.00000	1676.13600
4.23295	0.00000	1676.13600
4.23677	0.00000	1676.13600
4.24059	0.00000	1680.87100
4.24441	0.00000	1680.87100
4.24824	0.00000	1680.87100
4.25205	0.00000	1680.87100
4.25588	0.00000	1680.87100
4.25967	0.00000	1680.87100
4.26349	0.00000	1680.87100
4.26730	0.00000	1676.13600
4.27114	0.00000	1676.13600
4.27496	0.00000	1676.13600
4.27878	0.00000	1676.13600
4.28260	0.00000	1690.34000
4.28642	0.00000	1690.34000
4.29026	0.00000	1690.34000
4.29408	0.00000	1698.02300
4.29790	0.00000	1698.02300
4.30171	0.00000	1698.02300
4.30554	0.00000	1698.02300
4.30935	0.00000	1680.87100
4.31318	0.00000	1680.87100
4.31699	0.00000	1680.87100
4.32082	0.00000	1676.13600
4.32464	0.00000	1676.13600
4.32846	0.00000	1676.13600
4.33228	0.00000	1676.13600
4.33610	0.00000	1676.13600
4.33992	0.00000	1676.13600
4.34374	0.00000	1676.13600
4.34756	0.00000	1676.13600
4.35138	0.00000	1676.13600
4.35521	0.00000	1676.13600
4.35904	0.00000	1676.13600
4.36287	0.00000	1676.13600
4.36670	0.00000	1676.13600
4.37052	0.00000	1676.13600
4.37433	0.00000	1685.60600
4.37816	0.00000	1685.60600
4.38198	0.00000	1685.60600
4.38580	0.00000	1693.23900
4.38963	0.00000	1693.23900
4.39345	0.00000	1693.23900
4.39727	0.00000	1693.23900
4.40109	0.00000	1685.60600
4.40491	0.00000	1685.60600
4.40873	0.00000	1685.60600
4.41255	0.00000	1676.13600
4.41637	0.00000	1676.13600
4.42019	0.00000	1676.13600
4.42401	0.00000	1676.13600
4.42783	0.00000	1676.13600
4.43165	0.00000	1676.13600
4.43547	0.00000	1676.13600
4.43931	0.00000	1680.87100
4.44313	0.00000	1680.87100
4.44694	0.00000	1680.87100
4.45076	0.00000	1676.13600
4.45459	0.00000	1676.13600
4.45842	0.00000	1676.13600
4.46224	0.00000	1676.13600
4.46607	0.00000	1673.43700
4.46988	0.00000	1673.43700
4.47371	0.00000	1673.43700
4.47754	0.00000	1676.13600
4.48136	0.00000	1676.13600
4.48518	0.00000	1676.13600
4.48900	0.00000	1676.13600
4.49282	0.00000	1685.60600
4.49664	0.00000	1685.60600
4.50045	0.00000	1685.60600
4.50428	0.00000	1693.23900
4.50810	0.00000	1693.23900
4.51192	0.00000	1693.23900
4.51575	0.00000	1693.23900
4.51958	0.00000	1693.23900
4.52340	0.00000	1693.23900
4.52722	0.00000	1693.23900
4.53105	0.00000	1680.87100
4.53487	0.00000	1680.87100
4.53869	0.00000	1680.87100
4.54251	0.00000	1676.13600
4.54633	0.00000	1676.13600
4.55015	0.00000	1676.13600
4.55397	0.00000	1676.13600
4.55779	0.00000	1668.75000
4.56162	0.00000	1668.75000
4.56545	0.00000	1668.75000
4.56927	0.00000	1676.13600
4.57309	0.00000	1676.13600
4.57691	0.00000	1676.13600
4.58073	0.00000	1676.13600
4.58454	0.00000	1685.60600
4.58836	0.00000	1685.60600
4.59218	0.00000	1685.60600
4.59601	0.00000	1676.13600
4.59982	0.00000	1676.13600
4.60365	0.00000	1676.13600
4.60748	0.00000	1676.13600
4.61129	0.00000	1676.13600
4.61512	0.00000	1676.13600
4.61894	0.00000	1676.13600
4.62276	0.00000	1676.13600
4.62658	0.00000	1676.13600
4.63040	0.00000	1676.13600
4.63421	0.00000	1693.23900
4.63803	0.00000	1693.23900
4.64185	0.00000	1693.23900
4.64568	0.00000	1693.23900
4.64950	0.00000	1690.34000
4.65332	0.00000	1690.34000
4.65714	0.00000	1690.34000
4.66096	0.00000	1676.13600
4.66479	0.00000	1676.13600
4.66860	0.00000	1676.13600
4.67243	0.00000	1676.13600
4.67626	0.00000	1668.75000
4.68008	0.00000	1668.75000
4.68390	0.00000	1668.75000
4.68776	0.00000	1676.13600
4.69159	0.00000	1676.13600
4.69541	0.00000	1676.13600
4.69923	0.00000	1676.13600
4.70306	0.00000	1676.13600
4.70688	0.00000	1676.13600
4.71070	0.00000	1676.13600
4.71452	0.00000	1685.60600
4.71834	0.00000	1685.60600
4.72217	0.00000	1685.60600
4.72599	0.00000	1676.13600
4.72982	0.00000	1676.13600
4.73364	0.00000	1676.13600
4.73745	0.00000	1676.13600
4.74128	0.00000	1685.60600
4.74510	0.00000	1685.60600
4.74893	0.00000	1685.60600
4.75276	0.00000	1680.87100
4.75659	0.00000	1680.87100
4.76042	0.00000	1680.87100
4.76424	0.00000	1680.87100
4.76806	0.00000	1680.87100
4.77189	0.00000	1680.87100
4.77567	0.00000	1680.87100
4.77949	0.00000	1676.13600
4.78331	0.00000	1676.13600
4.78714	0.00000	1676.13600
4.79096	0.00000	1676.13600
4.79479	0.00000	1676.13600
4.79860	0.00000	1676.13600
4.80242	0.00000	1676.13600
4.80625	0.00000	1664.06200
4.81008	0.00000	1664.06200
4.81390	0.00000	1664.06200
4.81772	0.00000	1680.87100
4.82156	0.00000	1680.87100
4.82542	0.00000	1680.87100
4.82926	0.00000	1680.87100
4.83308	0.00000	1690.34000
4.83692	0.00000	1690.34000
4.84074	0.00000	1690.34000
4.84456	0.00000	1676.13600
4.84838	0.00000	1676.13600
4.85220	0.00000	1676.13600
4.85602	0.00000	1676.13600
4.85985	0.00000	1680.87100
4.86367	0.00000	1680.87100
4.86749	0.00000	1680.87100
4.87130	0.00000	1676.13600
4.87513	0.00000	1676.13600
4.87895	0.00000	1676.13600
4.88277	0.00000	1676.13600
4.88661	0.00000	1676.13600
4.89043	0.00000	1676.13600
4.89425	0.00000	1676.13600
4.89807	0.00000	1690.34000
4.90190	0.00000	1690.34000
4.90572	0.00000	1690.34000
4.90954	0.00000	1680.87100
4.91336	0.00000	1680.87100
4.91718	0.00000	1680.87100
4.92100	0.00000	1680.87100
4.92482	0.00000	1673.43700
4.92864	0.00000	1673.43700
4.93246	0.00000	1673.43700
4.93629	0.00000	1676.13600
4.94011	0.00000	1676.13600
4.94394	0.00000	1676.13600
4.94776	0.00000	1676.13600
4.95158	0.00000	1676.13600
4.95540	0.00000	1676.13600
4.95923	0.00000	1676.13600
4.96306	0.00000	1698.02300
4.96688	0.00000	1698.02300
4.97070	0.00000	1698.02300
4.97453	0.00000	1676.13600
4.97835	0.00000	1676.13600
4.98218	0.00000	1676.13600
4.98600	0.00000	1676.13600
4.98983	0.00000	1685.60600
4.99365	0.00000	1685.60600
4.99747	0.00000	1685.60600
5.00180	0.00000	1693.23900
5.00568	0.00000	1693.23900
5.00952	0.00000	1693.23900
5.01336	0.00000	1693.23900
5.01720	0.00000	1693.23900
5.02105	0.00000	1693.23900
5.02489	0.00000	1693.23900
5.02872	0.00000	1939.33800
5.03260	0.00000	1939.33800
5.03647	0.00000	1939.33800
5.04031	0.00000	1939.33800
5.04415	0.00000	2330.84800
5.04799	0.00000	2330.84800
5.05182	0.00000	2330.84800
5.05567	0.00000	2330.84800
5.05952	0.00000	2669.83700
5.06336	0.00000	2669.83700
5.06720	0.00000	2669.83700
5.07104	0.00000	2669.83700
5.07487	0.00000	3002.32400
5.07871	0.00000	3002.32400
5.08255	0.00000	3002.32400
5.08639	0.00000	3002.32400
5.09022	0.00000	3332.51900
5.09405	0.00000	3332.51900
5.09789	0.00000	3332.51900
5.10172	0.00000	3332.51900
5.10555	0.00000	3332.51900
5.10938	0.00000	3674.17200
5.11322	0.00000	3674.17200
5.11705	0.00000	3674.17200
5.12088	0.00000	3674.17200
5.12470	0.00000	3674.17200
5.12854	0.00000	3992.45700
5.13239	0.00000	3992.45700
5.13622	0.00000	3992.45700
5.14005	0.00000	3992.45700
5.14389	0.00000	3992.45700
5.14773	0.00000	4310.06500
5.15156	0.00000	4310.06500
5.15539	0.00000	4310.06500
5.15923	0.00000	4310.06500
5.16306	0.00000	4310.06500
5.16690	0.00000	4310.06500
5.17074	0.00000	4625.00000
5.17458	0.00000	4625.00000
5.17841	0.00000	4625.00000
5.18224	0.00000	4625.00000
5.18607	0.00000	4625.00000
5.18990	0.00000	4625.00000
5.19374	0.00000	4876.59800
5.19756	0.00000	4876.59800
5.20139	0.00000	4876.59800
5.20524	0.00000	4876.59800
5.20909	0.00000	4876.59800
5.21293	0.00000	4876.59800
5.21675	0.00000	5100.20400
5.22059	0.00000	5100.20400
5.22443	0.00000	5100.20400
5.22827	0.00000	5100.20400
5.23210	0.00000	5100.20400
5.23595	0.00000	5100.20400
5.23978	0.00000	5237.23800
5.24361	0.00000	5237.23800
5.24745	0.00000	5237.23800
5.25128	0.00000	5237.23800
5.25512	0.00000	5237.23800
5.25897	0.00000	5237.23800
5.26281	0.00000	5237.23800
5.26665	0.00000	5340.40200
5.27049	0.00000	5340.40200
5.27433	0.00000	5340.40200
5.27817	0.00000	5340.40200
5.28201	0.00000	5340.40200
5.28584	0.00000	5340.40200
5.28969	0.00000	5340.40200
5.29353	0.00000	5395.31200
5.29736	0.00000	5395.31200
5.30120	0.00000	5395.31200
5.30503	0.00000	5395.31200
5.30887	0.00000	5395.31200
5.31271	0.00000	5395.31200
5.31655	0.00000	5395.31200
5.32038	0.00000	5437.03500
5.32421	0.00000	5437.03500
5.32805	0.00000	5437.03500
5.33189	0.00000	5437.03500
5.33572	0.00000	5437.03500
5.33955	0.00000	5437.03500
5.34339	0.00000	5437.03500
5.34722	0.00000	5445.77200
5.35105	0.00000	5445.77200
5.35489	0.00000	5445.77200
5.35873	0.00000	5445.77200
5.36256	0.00000	5445.77200
5.36640	0.00000	5445.77200
5.37023	0.00000	5445.77200
5.37407	0.00000	5453.50600
5.37791	0.00000	5453.50600
5.38174	0.00000	5453.50600
5.38558	0.00000	5453.50600
5.38942	0.00000	5453.50600
5.39326	0.00000	5453.50600
5.39709	0.00000	5453.50600
5.40092	0.00000	5496.32300
5.40475	0.00000	5496.32300
5.40858	0.00000	5496.32300
5.41241	0.00000	5496.32300
5.41624	0.00000	5496.32300
5.42008	0.00000	5496.32300
5.42392	0.00000	5474.08500
5.42774	0.00000	5474.08500
5.43158	0.00000	5474.08500
5.43543	0.00000	5474.08500
5.43926	0.00000	5474.08500
5.44310	0.00000	5474.08500
5.44693	0.00000	5474.08500
5.45076	0.00000	5480.94500
5.45458	0.00000	5480.94500
5.45841	0.00000	5480.94500
5.46225	0.00000	5480.94500
5.46608	0.00000	5480.94500
5.46991	0.00000	5480.94500
5.47375	0.00000	5480.94500
5.47759	0.00000	5490.09200
5.48142	0.00000	5490.09200
5.48526	0.00000	5490.09200
5.48909	0.00000	5490.09200
5.49293	0.00000	5490.09200
5.49677	0.00000	5490.09200
5.50061	0.00000	5490.09200
5.50445	0.00000	5492.37800
5.50829	0.00000	5492.37800
5.51212	0.00000	5492.37800
5.51596	0.00000	5492.37800
5.51979	0.00000	5492.37800
5.52362	0.00000	5492.37800
5.52747	0.00000	5492.37800
5.53130	0.00000	5472.54200
5.53516	0.00000	5472.54200
5.53899	0.00000	5472.54200
5.54283	0.00000	5472.54200
5.54667	0.00000	5472.54200
5.55050	0.00000	5472.54200
5.55433	0.00000	5472.54200
5.55817	0.00000	5490.74600
5.56202	0.00000	5490.74600
5.56586	0.00000	5490.74600
5.56970	0.00000	5490.74600
5.57353	0.00000	5490.74600
5.57737	0.00000	5490.74600
5.58120	0.00000	5490.74600
5.58503	0.00000	5493.02200
5.58888	0.00000	5493.02200
5.59272	0.00000	5493.02200
5.59656	0.00000	5493.02200
5.60040	0.00000	5493.02200
5.60423	0.00000	5493.02200
5.60808	0.00000	5493.02200
5.61191	0.00000	5490.74600
5.61576	0.00000	5490.74600
5.61960	0.00000	5490.74600
5.62344	0.00000	5490.74600
5.62728	0.00000	5490.74600
5.63112	0.00000	5490.74600
5.63495	0.00000	5490.74600
5.63880	0.00000	5488.47100
5.64264	0.00000	5488.47100
5.64647	0.00000	5488.47100
5.65031	0.00000	5488.47100
5.65416	0.00000	5488.47100
5.65802	0.00000	5488.47100
5.66186	0.00000	5488.47100
5.66570	0.00000	5488.47100
5.66954	0.00000	5488.47100
5.67337	0.00000	5488.47100
5.67720	0.00000	5488.47100
5.68104	0.00000	5488.47100
5.68489	0.00000	5488.47100
5.68872	0.00000	5488.47100
5.69256	0.00000	5486.19500
5.69640	0.00000	5486.19500
5.70024	0.00000	5486.19500
5.70408	0.00000	5486.19500
5.70793	0.00000	5486.19500
5.71178	0.00000	5486.19500
5.71564	0.00000	5486.19500
5.71950	0.00000	5464.22000
5.72334	0.00000	5464.22000
5.72718	0.00000	5464.22000
5.73103	0.00000	5464.22000
5.73487	0.00000	5464.22000
5.73870	0.00000	5464.22000
5.74254	0.00000	5464.22000
5.74638	0.00000	5490.74600
5.75021	0.00000	5490.74600
5.75405	0.00000	5490.74600
5.75789	0.00000	5490.74600
5.76172	0.00000	5490.74600
5.76557	0.00000	5490.74600
5.76940	0.00000	5490.74600
5.77325	0.00000	5493.02200
5.77709	0.00000	5493.02200
5.78092	0.00000	5493.02200
5.78476	0.00000	5493.02200
5.78861	0.00000	5493.02200
5.79244	0.00000	5493.02200
5.79628	0.00000	5493.02200
5.80011	0.00000	5493.02200
5.80394	0.00000	5493.02200
5.80778	0.00000	5493.02200
5.81161	0.00000	5493.02200
5.81546	0.00000	5493.02200
5.81930	0.00000	5493.02200
5.82313	0.00000	5493.02200
5.82697	0.00000	5483.92000
5.83081	0.00000	5483.92000
5.83464	0.00000	5483.92000
5.83850	0.00000	5483.92000
5.84232	0.00000	5483.92000
5.84618	0.00000	5483.92000
5.85001	0.00000	5483.92000
5.85385	0.00000	5486.19500
5.85770	0.00000	5486.19500
5.86154	0.00000	5486.19500
5.86537	0.00000	5486.19500
5.86922	0.00000	5486.19500
5.87305	0.00000	5486.19500
5.87689	0.00000	5486.19500
5.88073	0.00000	5488.47100
5.88456	0.00000	5488.47100
5.88840	0.00000	5488.47100
5.89225	0.00000	5488.47100
5.89608	0.00000	5488.47100
5.89994	0.00000	5488.47100
5.90376	0.00000	5488.47100
5.90762	0.00000	5488.47100
5.91146	0.00000	5488.47100
5.91530	0.00000	5488.47100
5.91914	0.00000	5488.47100
5.92298	0.00000	5488.47100
5.92681	0.00000	5488.47100
5.93066	0.00000	5488.47100
5.93448	0.00000	5481.64400
5.93834	0.00000	5481.64400
5.94218	0.00000	5481.64400
5.94602	0.00000	5481.64400
5.94986	0.00000	5481.64400
5.95370	0.00000	5481.64400
5.95753	0.00000	5481.64400
5.96139	0.00000	5490.74600
5.96522	0.00000	5490.74600
5.96906	0.00000	5490.74600
5.97290	0.00000	5490.74600
5.97674	0.00000	5490.74600
5.98057	0.00000	5490.74600
5.98442	0.00000	5490.74600
5.98826	0.00000	5483.92000
5.99211	0.00000	5483.92000
5.99595	0.00000	5483.92000
5.99978	0.00000	5483.92000
6.00362	0.00000	5483.92000
6.00746	0.00000	5483.92000
6.01130	0.00000	5483.92000
6.01515	0.00000	5508.38400
6.01898	0.00000	5508.38400
6.02282	0.00000	5508.38400
6.02665	0.00000	5508.38400
6.03049	0.00000	5508.38400
6.03434	0.00000	5508.38400
6.03816	0.00000	5508.38400
6.04200	0.00000	5481.64400
6.04585	0.00000	5481.64400
6.04968	0.00000	5481.64400
6.05351	0.00000	5481.64400
6.05735	0.00000	5481.64400
6.06120	0.00000	5481.64400
6.06504	0.00000	5481.64400
6.06888	0.00000	5488.47100
6.07273	0.00000	5488.47100
6.07660	0.00000	5488.47100
6.08045	0.00000	5488.47100
6.08428	0.00000	5488.47100
6.08813	0.00000	5488.47100
6.09195	0.00000	5488.47100
6.09579	0.00000	5483.92000
6.09963	0.00000	5483.92000
6.10347	0.00000	5483.92000
6.10731	0.00000	5483.92000
6.11114	0.00000	5483.92000
6.11497	0.00000	5483.92000
6.11882	0.00000	5483.92000
6.12267	0.00000	5486.19500
6.12651	0.00000	5486.19500
6.13035	0.00000	5486.19500
6.13419	0.00000	5486.19500
6.13804	0.00000	5486.19500
6.14187	0.00000	5486.19500
6.14570	0.00000	5486.19500
6.14954	0.00000	5483.92000
6.15338	0.00000	5483.92000
6.15721	0.00000	5483.92000
6.16106	0.00000	5483.92000
6.16489	0.00000	5483.92000
6.16874	0.00000	5483.92000
6.17257	0.00000	5483.92000
6.17641	0.00000	5479.36900
6.18025	0.00000	5479.36900
6.18409	0.00000	5479.36900
6.18792	0.00000	5479.36900
6.19176	0.00000	5479.36900
6.19559	0.00000	5479.36900
6.19944	0.00000	5479.36900
6.20328	0.00000	5481.64400
6.20711	0.00000	5481.64400
6.21095	0.00000	5481.64400
6.21478	0.00000	5481.64400
6.21862	0.00000	5481.64400
6.22246	0.00000	5481.64400
6.22629	0.00000	5481.64400
6.23012	0.00000	5483.92000
6.23395	0.00000	5483.92000
6.23778	0.00000	5483.92000
6.24163	0.00000	5483.92000
6.24546	0.00000	5483.92000
6.24929	0.00000	5483.92000
6.25313	0.00000	5483.92000
6.25696	0.00000	5486.19500
6.26082	0.00000	5486.19500
6.26465	0.00000	5486.19500
6.26848	0.00000	5486.19500
6.27231	0.00000	5486.19500
6.27614	0.00000	5486.19500
6.27997	0.00000	5486.19500
6.28381	0.00000	5481.64400
6.28764	0.00000	5481.64400
6.29149	0.00000	5481.64400
6.29533	0.00000	5481.64400
6.29915	0.00000	5481.64400
6.30300	0.00000	5481.64400
6.30683	0.00000	5481.64400
6.31067	0.00000	5510.67100
6.31450	0.00000	5510.67100
6.31833	0.00000	5510.67100
6.32217	0.00000	5510.67100
6.32600	0.00000	5510.67100
6.32983	0.00000	5510.67100
6.33367	0.00000	5510.67100
6.33751	0.00000	5477.09400
6.34135	0.00000	5477.09400
6.34518	0.00000	5477.09400
6.34901	0.00000	5477.09400
6.35285	0.00000	5477.09400
6.35668	0.00000	5477.09400
6.36052	0.00000	5477.09400
6.36436	0.00000	5479.36900
6.36819	0.00000	5479.36900
6.37204	0.00000	5479.36900
6.37587	0.00000	5479.36900
6.37971	0.00000	5479.36900
6.38356	0.00000	5479.36900
6.38739	0.00000	5479.36900
6.39123	0.00000	5479.36900
6.39507	0.00000	5479.36900
6.39890	0.00000	5479.36900
6.40276	0.00000	5479.36900
6.40659	0.00000	5479.36900
6.41043	0.00000	5479.36900
6.41427	0.00000	5479.36900
6.41810	0.00000	5479.36900
6.42193	0.00000	5479.36900
6.42579	0.00000	5479.36900
6.42962	0.00000	5479.36900
6.43346	0.00000	5479.36900
6.43729	0.00000	5479.36900
6.44115	0.00000	5479.36900
6.44499	0.00000	5481.64400
6.44882	0.00000	5481.64400
6.45266	0.00000	5481.64400
6.45651	0.00000	5481.64400
6.46035	0.00000	5481.64400
6.46420	0.00000	5481.64400
6.46803	0.00000	5481.64400
6.47188	0.00000	5481.64400
6.47572	0.00000	5481.64400
6.47956	0.00000	5481.64400
6.48340	0.00000	5481.64400
6.48724	0.00000	5481.64400
6.49107	0.00000	5481.64400
6.49490	0.00000	5481.64400
6.49874	0.00000	5479.36900
6.50259	0.00000	5479.36900
6.50643	0.00000	5479.36900
6.51026	0.00000	5479.36900
6.51410	0.00000	5479.36900
6.51795	0.00000	5479.36900
6.52178	0.00000	5479.36900
6.52561	0.00000	5490.09200
6.52945	0.00000	5490.09200
6.53329	0.00000	5490.09200
6.53714	0.00000	5490.09200
6.54097	0.00000	5490.09200
6.54480	0.00000	5490.09200
6.54865	0.00000	5490.09200
6.55247	0.00000	5487.80500
6.55631	0.00000	5487.80500
6.56014	0.00000	5487.80500
6.56398	0.00000	5487.80500
6.56783	0.00000	5487.80500
6.57167	0.00000	5487.80500
6.57551	0.00000	5498.62100
6.57933	0.00000	5498.62100
6.58316	0.00000	5498.62100
6.58700	0.00000	5498.62100
6.59084	0.00000	5498.62100
6.59467	0.00000	5498.62100
6.59851	0.00000	5498.62100
6.60234	0.00000	5476.37200
6.60617	0.00000	5476.37200
6.61002	0.00000	5476.37200
6.61386	0.00000	5476.37200
6.61769	0.00000	5476.37200
6.62152	0.00000	5476.37200
6.62536	0.00000	5476.37200
6.62920	0.00000	5483.23200
6.63303	0.00000	5483.23200
6.63688	0.00000	5483.23200
6.64072	0.00000	5483.23200
6.64455	0.00000	5483.23200
6.64839	0.00000	5483.23200
6.65222	0.00000	5483.23200
6.65606	0.00000	5496.95100
6.65992	0.00000	5496.95100
6.66375	0.00000	5496.95100
6.66759	0.00000	5496.95100
6.67142	0.00000	5496.95100
6.67526	0.00000	5496.95100
6.67910	0.00000	5496.95100
6.68293	0.00000	5506.09700
6.68677	0.00000	5506.09700
6.69062	0.00000	5506.09700
6.69445	0.00000	5506.09700
6.69829	0.00000	5506.09700
6.70212	0.00000	5506.09700
6.70596	0.00000	5506.09700
6.70980	0.00000	5477.09400
6.71367	0.00000	5477.09400
6.71750	0.00000	5477.09400
6.72135	0.00000	5477.09400
6.72517	0.00000	5477.09400
6.72901	0.00000	5477.09400
6.73284	0.00000	5477.09400
6.73667	0.00000	5481.64400
6.74052	0.00000	5481.64400
6.74434	0.00000	5481.64400
6.74817	0.00000	5481.64400
6.75201	0.00000	5481.64400
6.75585	0.00000	5481.64400
6.75966	0.00000	5481.64400
6.76349	0.00000	5472.54200
6.76733	0.00000	5472.54200
6.77117	0.00000	5472.54200
6.77500	0.00000	5472.54200
6.77885	0.00000	5472.54200
6.78269	0.00000	5472.54200
6.78652	0.00000	5472.54200
6.79037	0.00000	5474.81800
6.79420	0.00000	5474.81800
6.79805	0.00000	5474.81800
6.80189	0.00000	5474.81800
6.80572	0.00000	5474.81800
6.80956	0.00000	5474.81800
6.81339	0.00000	5474.81800
6.81722	0.00000	5477.09400
6.82108	0.00000	5477.09400
6.82491	0.00000	5477.09400
6.82874	0.00000	5477.09400
6.83259	0.00000	5477.09400
6.83643	0.00000	5477.09400
6.84026	0.00000	5477.09400
6.84411	0.00000	5477.09400
6.84794	0.00000	5477.09400
6.85180	0.00000	5477.09400
6.85563	0.00000	5477.09400
6.85947	0.00000	5477.09400
6.86332	0.00000	5477.09400
6.86717	0.00000	5477.09400
6.87100	0.00000	5503.81100
6.87484	0.00000	5503.81100
6.87867	0.00000	5503.81100
6.88253	0.00000	5503.81100
6.88642	0.00000	5503.81100
6.89029	0.00000	5503.81100
6.89415	0.00000	5503.81100
6.89799	0.00000	5481.64400
6.90182	0.00000	5481.64400
6.90568	0.00000	5481.64400
6.90951	0.00000	5481.64400
6.91335	0.00000	5481.64400
6.91718	0.00000	5481.64400
6.92104	0.00000	5481.64400
6.92488	0.00000	5479.36900
6.92871	0.00000	5479.36900
6.93255	0.00000	5479.36900
6.93639	0.00000	5479.36900
6.94023	0.00000	5479.36900
6.94407	0.00000	5479.36900
6.94791	0.00000	5479.36900
6.95176	0.00000	5479.36900
6.95560	0.00000	5479.36900
6.95943	0.00000	5479.36900
6.96327	0.00000	5479.36900
6.96712	0.00000	5479.36900
6.97095	0.00000	5479.36900
6.97478	0.00000	5479.36900
6.97863	0.00000	5472.54200
6.98246	0.00000	5472.54200
6.98630	0.00000	5472.54200
6.99014	0.00000	5472.54200
6.99398	0.00000	5472.54200
6.99782	0.00000	5472.54200
7.00165	0.00000	5472.54200
7.00549	0.00000	5477.09400
7.00933	0.00000	5477.09400
7.01316	0.00000	5477.09400
7.01699	0.00000	5477.09400
7.02082	0.00000	5477.09400
7.02467	0.00000	5477.09400
7.02851	0.00000	5477.09400
7.03234	0.00000	5481.64400
7.03618	0.00000	5481.64400
7.04003	0.00000	5481.64400
7.04386	0.00000	5481.64400
7.04766	0.00000	5481.64400
7.05150	0.00000	5481.64400
7.05534	0.00000	5481.64400
7.05919	0.00000	5479.36900
7.06302	0.00000	5479.36900
7.06687	0.00000	5479.36900
7.07072	0.00000	5479.36900
7.07459	0.00000	5479.36900
7.07844	0.00000	5479.36900
7.08227	0.00000	5479.36900
7.08610	0.00000	5481.64400
7.08995	0.00000	5481.64400
7.09378	0.00000	5481.64400
7.09761	0.00000	5481.64400
7.10147	0.00000	5481.64400
7.10530	0.00000	5481.64400
7.10914	0.00000	5481.64400
7.11297	0.00000	5479.36900
7.11681	0.00000	5479.36900
7.12065	0.00000	5479.36900
7.12448	0.00000	5479.36900
7.12832	0.00000	5479.36900
7.13216	0.00000	5479.36900
7.13599	0.00000	5479.36900
7.13984	0.00000	5481.64400
7.14366	0.00000	5481.64400
7.14749	0.00000	5481.64400
7.15134	0.00000	5481.64400
7.15517	0.00000	5481.64400
7.15901	0.00000	5481.64400
7.16285	0.00000	5481.64400
7.16669	0.00000	5474.81800
7.17052	0.00000	5474.81800
7.17437	0.00000	5474.81800
7.17821	0.00000	5474.81800
7.18204	0.00000	5474.81800
7.18587	0.00000	5474.81800
7.18971	0.00000	5474.81800
7.19354	0.00000	5477.09400
7.19737	0.00000	5477.09400
7.20121	0.00000	5477.09400
7.20510	0.00000	5477.09400
7.20894	0.00000	5477.09400
7.21278	0.00000	5477.09400
7.21662	0.00000	5477.09400
7.22047	0.00000	5474.81800
7.22431	0.00000	5474.81800
7.22814	0.00000	5474.81800
7.23197	0.00000	5474.81800
7.23583	0.00000	5474.81800
7.23966	0.00000	5474.81800
7.24352	0.00000	5474.81800
7.24735	0.00000	5508.38400
7.25119	0.00000	5508.38400
7.25503	0.00000	5508.38400
7.25887	0.00000	5508.38400
7.26270	0.00000	5508.38400
7.26655	0.00000	5508.38400
7.27038	0.00000	5508.38400
7.27423	0.00000	5483.92000
7.27806	0.00000	5483.92000
7.28190	0.00000	5483.92000
7.28574	0.00000	5483.92000
7.28958	0.00000	5483.92000
7.29342	0.00000	5483.92000
7.29727	0.00000	5483.92000
7.30111	0.00000	5479.36900
7.30496	0.00000	5479.36900
7.30879	0.00000	5479.36900
7.31265	0.00000	5479.36900
7.31649	0.00000	5479.36900
7.32032	0.00000	5479.36900
7.32416	0.00000	5479.36900
7.32801	0.00000	5477.09400
7.33184	0.00000	5477.09400
7.33566	0.00000	5477.09400
7.33949	0.00000	5477.09400
7.34334	0.00000	5477.09400
7.34718	0.00000	5477.09400
7.35101	0.00000	5477.09400
7.35485	0.00000	5477.09400
7.35868	0.00000	5477.09400
7.36252	0.00000	5477.09400
7.36637	0.00000	5477.09400
7.37023	0.00000	5477.09400
7.37410	0.00000	5477.09400
7.37797	0.00000	5477.09400
7.38181	0.00000	5477.09400
7.38564	0.00000	5477.09400
7.38949	0.00000	5477.09400
7.39332	0.00000	5477.09400
7.39716	0.00000	5477.09400
7.40100	0.00000	5477.09400
7.40483	0.00000	5477.09400
7.40869	0.00000	5499.23800
7.41252	0.00000	5499.23800
7.41635	0.00000	5499.23800
7.42020	0.00000	5499.23800
7.42405	0.00000	5499.23800
7.42788	0.00000	5499.23800
7.43173	0.00000	5499.23800
7.43555	0.00000	5494.66400
7.43939	0.00000	5494.66400
7.44322	0.00000	5494.66400
7.44705	0.00000	5494.66400
7.45090	0.00000	5494.66400
7.45473	0.00000	5494.66400
7.45857	0.00000	5494.66400
7.46240	0.00000	5485.51800
7.46626	0.00000	5485.51800
7.47014	0.00000	5485.51800
7.47399	0.00000	5485.51800
7.47783	0.00000	5485.51800
7.48169	0.00000	5485.51800
7.48553	0.00000	5476.37200
7.48936	0.00000	5476.37200
7.49320	0.00000	5476.37200
7.49704	0.00000	5476.37200
7.50087	0.00000	5476.37200
7.50471	0.00000	5476.37200
7.50854	0.00000	5476.37200
7.51238	0.00000	5485.51800
7.51622	0.00000	5485.51800
7.52005	0.00000	5485.51800
7.52389	0.00000	5485.51800
7.52773	0.00000	5485.51800
7.53158	0.00000	5485.51800
7.53542	0.00000	5485.51800
7.53926	0.00000	5470.26700
7.54311	0.00000	5470.26700
7.54695	0.00000	5470.26700
7.55079	0.00000	5470.26700
7.55463	0.00000	5470.26700
7.55846	0.00000	5470.26700
7.56230	0.00000	5470.26700
7.56614	0.00000	5477.09400
7.56999	0.00000	5477.09400
7.57382	0.00000	5477.09400
7.57766	0.00000	5477.09400
7.58150	0.00000	5477.09400
7.58534	0.00000	5477.09400
7.58917	0.00000	5477.09400
7.59300	0.00000	5477.09400
7.59686	0.00000	5477.09400
7.60069	0.00000	5477.09400
7.60452	0.00000	5477.09400
7.60835	0.00000	5477.09400
7.61219	0.00000	5477.09400
7.61603	0.00000	5477.09400
7.61987	0.00000	5477.09400
7.62373	0.00000	5477.09400
7.62756	0.00000	5477.09400
7.63139	0.00000	5477.09400
7.63523	0.00000	5477.09400
7.63907	0.00000	5477.09400
7.64291	0.00000	5477.09400
7.64675	0.00000	5477.09400
7.65059	0.00000	5477.09400
7.65442	0.00000	5477.09400
7.65827	0.00000	5477.09400
7.66211	0.00000	5477.09400
7.66595	0.00000	5477.09400
7.66978	0.00000	5477.09400
7.67361	0.00000	5483.92000
7.67747	0.00000	5483.92000
7.68130	0.00000	5483.92000
7.68513	0.00000	5483.92000
7.68897	0.00000	5483.92000
7.69281	0.00000	5483.92000
7.69666	0.00000	5483.92000
7.70049	0.00000	5479.36900
7.70433	0.00000	5479.36900
7.70817	0.00000	5479.36900
7.71201	0.00000	5479.36900
7.71585	0.00000	5479.36900
7.71966	0.00000	5479.36900
7.72351	0.00000	5479.36900
7.72734	0.00000	5481.64400
7.73117	0.00000	5481.64400
7.73501	0.00000	5481.64400
7.73885	0.00000	5481.64400
7.74268	0.00000	5481.64400
7.74652	0.00000	5481.64400
7.75035	0.00000	5481.64400
7.75418	0.00000	5472.54200
7.75803	0.00000	5472.54200
7.76186	0.00000	5472.54200
7.76569	0.00000	5472.54200
7.76953	0.00000	5472.54200
7.77336	0.00000	5472.54200
7.77719	0.00000	5472.54200
7.78102	0.00000	5479.36900
7.78486	0.00000	5479.36900
7.78870	0.00000	5479.36900
7.79253	0.00000	5479.36900
7.79636	0.00000	5479.36900
7.80021	0.00000	5479.36900
7.80404	0.00000	5479.36900
7.80789	0.00000	5477.09400
7.81172	0.00000	5477.09400
7.81555	0.00000	5477.09400
7.81939	0.00000	5477.09400
7.82322	0.00000	5477.09400
7.82706	0.00000	5477.09400
7.83090	0.00000	5477.09400
7.83474	0.00000	5474.81800
7.83858	0.00000	5474.81800
7.84242	0.00000	5474.81800
7.84626	0.00000	5474.81800
7.85009	0.00000	5474.81800
7.85393	0.00000	5474.81800
7.85776	0.00000	5474.81800
7.86160	0.00000	5477.09400
7.86544	0.00000	5477.09400
7.86928	0.00000	5477.09400
7.87311	0.00000	5477.09400
7.87697	0.00000	5477.09400
7.88083	0.00000	5477.09400
7.88469	0.00000	5477.09400
7.88852	0.00000	5506.09700
7.89236	0.00000	5506.09700
7.89619	0.00000	5506.09700
7.90003	0.00000	5506.09700
7.90386	0.00000	5506.09700
7.90767	0.00000	5506.09700
7.91151	0.00000	5506.09700
7.91534	0.00000	5477.09400
7.91918	0.00000	5477.09400
7.92302	0.00000	5477.09400
7.92685	0.00000	5477.09400
7.93070	0.00000	5477.09400
7.93453	0.00000	5477.09400
7.93836	0.00000	5477.09400
7.94221	0.00000	5472.54200
7.94604	0.00000	5472.54200
7.94989	0.00000	5472.54200
7.95373	0.00000	5472.54200
7.95756	0.00000	5472.54200
7.96140	0.00000	5472.54200
7.96524	0.00000	5472.54200
7.96911	0.00000	5472.54200
7.97296	0.00000	5472.54200
7.97680	0.00000	5472.54200
7.98063	0.00000	5472.54200
7.98447	0.00000	5472.54200
7.98831	0.00000	5472.54200
7.99214	0.00000	5472.54200
7.99597	0.00000	5470.26700
7.99981	0.00000	5470.26700
8.00365	0.00000	5470.26700
8.00749	0.00000	5470.26700
8.01132	0.00000	5470.26700
8.01516	0.00000	5470.26700
8.01900	0.00000	5470.26700
8.02285	0.00000	5474.81800
8.02668	0.00000	5474.81800
8.03051	0.00000	5474.81800
8.03436	0.00000	5474.81800
8.03820	0.00000	5474.81800
8.04204	0.00000	5474.81800
8.04588	0.00000	5474.81800
8.04971	0.00000	5474.81800
8.05356	0.00000	5474.81800
8.05739	0.00000	5474.81800
8.06123	0.00000	5474.81800
8.06508	0.00000	5474.81800
8.06894	0.00000	5474.81800
8.07280	0.00000	5474.81800
8.07664	0.00000	5474.81800
8.08047	0.00000	5474.81800
8.08433	0.00000	5474.81800
8.08815	0.00000	5474.81800
8.09199	0.00000	5474.81800
8.09585	0.00000	5474.81800
8.09966	0.00000	5474.81800
8.10350	0.00000	5474.81800
8.10733	0.00000	5474.81800
8.11117	0.00000	5474.81800
8.11501	0.00000	5474.81800
8.11885	0.00000	5474.81800
8.12268	0.00000	5474.81800
8.12653	0.00000	5474.81800
8.13036	0.00000	5474.81800
8.13421	0.00000	5474.81800
8.13804	0.00000	5474.81800
8.14188	0.00000	5474.81800
8.14573	0.00000	5474.81800
8.14956	0.00000	5474.81800
8.15340	0.00000	5474.81800
8.15724	0.00000	5470.26700
8.16107	0.00000	5470.26700
8.16490	0.00000	5470.26700
8.16876	0.00000	5470.26700
8.17260	0.00000	5470.26700
8.17646	0.00000	5470.26700
8.18032	0.00000	5470.26700
8.18416	0.00000	5467.99100
8.18801	0.00000	5467.99100
8.19184	0.00000	5467.99100
8.19566	0.00000	5467.99100
8.19950	0.00000	5467.99100
8.20334	0.00000	5467.99100
8.20718	0.00000	5467.99100
8.21100	0.00000	5470.26700
8.21484	0.00000	5470.26700
8.21869	0.00000	5470.26700
8.22252	0.00000	5470.26700
8.22636	0.00000	5470.26700
8.23021	0.00000	5470.26700
8.23404	0.00000	5470.26700
8.23789	0.00000	5472.54200
8.24172	0.00000	5472.54200
8.24557	0.00000	5472.54200
8.24940	0.00000	5472.54200
8.25324	0.00000	5472.54200
8.25707	0.00000	5472.54200
8.26093	0.00000	5472.54200
8.26476	0.00000	5472.54200
8.26862	0.00000	5472.54200
8.27245	0.00000	5472.54200
8.27629	0.00000	5472.54200
8.28013	0.00000	5472.54200
8.28398	0.00000	5472.54200
8.28781	0.00000	5472.54200
8.29165	0.00000	5485.51800
8.29549	0.00000	5485.51800
8.29934	0.00000	5485.51800
8.30317	0.00000	5485.51800
8.30702	0.00000	5485.51800
8.31086	0.00000	5485.51800
8.31470	0.00000	5485.51800
8.31853	0.00000	5480.94500
8.32237	0.00000	5480.94500
8.32620	0.00000	5480.94500
8.33006	0.00000	5480.94500
8.33389	0.00000	5480.94500
8.33773	0.00000	5480.94500
8.34157	0.00000	5467.22500
8.34539	0.00000	5467.22500
8.34923	0.00000	5467.22500
8.35308	0.00000	5467.22500
8.35692	0.00000	5467.22500
8.36076	0.00000	5467.22500
8.36459	0.00000	5467.22500
8.36842	0.00000	5500.91900
8.37226	0.00000	5500.91900
8.37609	0.00000	5500.91900
8.37993	0.00000	5500.91900
8.38376	0.00000	5500.91900
8.38761	0.00000	5500.91900
8.39146	0.00000	5500.91900
8.39529	0.00000	5485.51800
8.39915	0.00000	5485.51800
8.40299	0.00000	5485.51800
8.40682	0.00000	5485.51800
8.41067	0.00000	5485.51800
8.41450	0.00000	5485.51800
8.41834	0.00000	5485.51800
8.42217	0.00000	5465.71600
8.42602	0.00000	5465.71600
8.42985	0.00000	5465.71600
8.43368	0.00000	5465.71600
8.43752	0.00000	5465.71600
8.44136	0.00000	5465.71600
8.44520	0.00000	5465.71600
8.44905	0.00000	5470.26700
8.45289	0.00000	5470.26700
8.45671	0.00000	5470.26700
8.46055	0.00000	5470.26700
8.46439	0.00000	5470.26700
8.46822	0.00000	5470.26700
8.47206	0.00000	5470.26700
8.47589	0.00000	5467.99100
8.47972	0.00000	5467.99100
8.48356	0.00000	5467.99100
8.48740	0.00000	5467.99100
8.49125	0.00000	5467.99100
8.49507	0.00000	5467.99100
8.49891	0.00000	5467.99100
8.50276	0.00000	5472.54200
8.50660	0.00000	5472.54200
8.51043	0.00000	5472.54200
8.51427	0.00000	5472.54200
8.51811	0.00000	5472.54200
8.52196	0.00000	5472.54200
8.52582	0.00000	5472.54200
8.52967	0.00000	5477.09400
8.53351	0.00000	5477.09400
8.53735	0.00000	5477.09400
8.54119	0.00000	5477.09400
8.54504	0.00000	5477.09400
8.54887	0.00000	5477.09400
8.55271	0.00000	5477.09400
8.55654	0.00000	5474.81800
8.56037	0.00000	5474.81800
8.56422	0.00000	5474.81800
8.56805	0.00000	5474.81800
8.57189	0.00000	5474.81800
8.57573	0.00000	5474.81800
8.57957	0.00000	5474.81800
8.58341	0.00000	5472.54200
8.58725	0.00000	5472.54200
8.59108	0.00000	5472.54200
8.59492	0.00000	5472.54200
8.59876	0.00000	5472.54200
8.60259	0.00000	5472.54200
8.60644	0.00000	5472.54200
8.61028	0.00000	5470.26700
8.61412	0.00000	5470.26700
8.61795	0.00000	5470.26700
8.62178	0.00000	5470.26700
8.62562	0.00000	5470.26700
8.62945	0.00000	5470.26700
8.63329	0.00000	5470.26700
8.63713	0.00000	5474.81800
8.64097	0.00000	5474.81800
8.64482	0.00000	5474.81800
8.64865	0.00000	5474.81800
8.65248	0.00000	5474.81800
8.65632	0.00000	5474.81800
8.66015	0.00000	5474.81800
8.66399	0.00000	5499.23800
8.66782	0.00000	5499.23800
8.67165	0.00000	5499.23800
8.67550	0.00000	5499.23800
8.67933	0.00000	5499.23800
8.68317	0.00000	5499.23800
8.68705	0.00000	5499.23800
8.69089	0.00000	5470.26700
8.69475	0.00000	5470.26700
8.69858	0.00000	5470.26700
8.70241	0.00000	5470.26700
8.70626	0.00000	5470.26700
8.71010	0.00000	5470.26700
8.71393	0.00000	5470.26700
8.71777	0.00000	5465.71600
8.72161	0.00000	5465.71600
8.72545	0.00000	5465.71600
8.72930	0.00000	5465.71600
8.73313	0.00000	5465.71600
8.73698	0.00000	5465.71600
8.74081	0.00000	5465.71600
8.74465	0.00000	5474.81800
8.74850	0.00000	5474.81800
8.75234	0.00000	5474.81800
8.75617	0.00000	5474.81800
8.76001	0.00000	5474.81800
8.76385	0.00000	5474.81800
8.76766	0.00000	5474.81800
8.77149	0.00000	5474.81800
8.77533	0.00000	5474.81800
8.77917	0.00000	5474.81800
8.78300	0.00000	5474.81800
8.78684	0.00000	5474.81800
8.79067	0.00000	5474.81800
8.79451	0.00000	5474.81800
8.79836	0.00000	5477.09400
8.80219	0.00000	5477.09400
8.80603	0.00000	5477.09400
8.80986	0.00000	5477.09400
8.81369	0.00000	5477.09400
8.81753	0.00000	5477.09400
8.82136	0.00000	5477.09400
8.82523	0.00000	5503.81100
8.82908	0.00000	5503.81100
8.83291	0.00000	5503.81100
8.83676	0.00000	5503.81100
8.84061	0.00000	5503.81100
8.84443	0.00000	5503.81100
8.84828	0.00000	5503.81100
8.85211	0.00000	5503.81100
8.85595	0.00000	5503.81100
8.85980	0.00000	5503.81100
8.86364	0.00000	5503.81100
8.86748	0.00000	5503.81100
8.87131	0.00000	5503.81100
8.87516	0.00000	5503.81100
8.87900	0.00000	5474.81800
8.88283	0.00000	5474.81800
8.88667	0.00000	5474.81800
8.89052	0.00000	5474.81800
8.89436	0.00000	5474.81800
8.89820	0.00000	5474.81800
8.90204	0.00000	5474.81800
8.90588	0.00000	5470.26700
8.90972	0.00000	5470.26700
8.91355	0.00000	5470.26700
8.91739	0.00000	5470.26700
8.92124	0.00000	5470.26700
8.92507	0.00000	5470.26700
8.92891	0.00000	5470.26700
8.93275	0.00000	5479.36900
8.93659	0.00000	5479.36900
8.94042	0.00000	5479.36900
8.94426	0.00000	5479.36900
8.94810	0.00000	5479.36900
8.95194	0.00000	5479.36900
8.95577	0.00000	5479.36900
8.95961	0.00000	5477.09400
8.96345	0.00000	5477.09400
8.96728	0.00000	5477.09400
8.97113	0.00000	5477.09400
8.97497	0.00000	5477.09400
8.97880	0.00000	5477.09400
8.98265	0.00000	5477.09400
8.98647	0.00000	5481.64400
8.99031	0.00000	5481.64400
8.99416	0.00000	5481.64400
8.99799	0.00000	5481.64400
9.00185	0.00000	5481.64400
9.00568	0.00000	5481.64400
9.00952	0.00000	5481.64400
9.01337	0.00000	5479.36900
9.01721	0.00000	5479.36900
9.02104	0.00000	5479.36900
9.02490	0.00000	5479.36900
9.02873	0.00000	5479.36900
9.03257	0.00000	5479.36900
9.03640	0.00000	5479.36900
9.04025	0.00000	5483.92000
9.04409	0.00000	5483.92000
9.04793	0.00000	5483.92000
9.05176	0.00000	5483.92000
9.05562	0.00000	5483.92000
9.05945	0.00000	5483.92000
9.06329	0.00000	5483.92000
9.06713	0.00000	5474.81800
9.07098	0.00000	5474.81800
9.07482	0.00000	5474.81800
9.07865	0.00000	5474.81800
9.08248	0.00000	5474.81800
9.08633	0.00000	5474.81800
9.09017	0.00000	5474.81800
9.09401	0.00000	5477.09400
9.09785	0.00000	5477.09400
9.10170	0.00000	5477.09400
9.10554	0.00000	5477.09400
9.10938	0.00000	5477.09400
9.11321	0.00000	5477.09400
9.11706	0.00000	5477.09400
9.12089	0.00000	5472.54200
9.12474	0.00000	5472.54200
9.12857	0.00000	5472.54200
9.13241	0.00000	5472.54200
9.13624	0.00000	5472.54200
9.14007	0.00000	5472.54200
9.14390	0.00000	5472.54200
9.14773	0.00000	5494.66400
9.15156	0.00000	5494.66400
9.15540	0.00000	5494.66400
9.15922	0.00000	5494.66400
9.16306	0.00000	5494.66400
9.16690	0.00000	5494.66400
9.17073	0.00000	5494.66400
9.17456	0.00000	5492.37800
9.17840	0.00000	5492.37800
9.18223	0.00000	5492.37800
9.18607	0.00000	5492.37800
9.18990	0.00000	5492.37800
9.19373	0.00000	5492.37800
9.19757	0.00000	5483.23200
9.20140	0.00000	5483.23200
9.20523	0.00000	5483.23200
9.20907	0.00000	5483.23200
9.21291	0.00000	5483.23200
9.21675	0.00000	5483.23200
9.22059	0.00000	5483.23200
9.22442	0.00000	5483.23200
9.22825	0.00000	5483.23200
9.23208	0.00000	5483.23200
9.23592	0.00000	5483.23200
9.23976	0.00000	5483.23200
9.24360	0.00000	5483.23200
9.24744	0.00000	5483.23200
9.25127	0.00000	5490.09200
9.25510	0.00000	5490.09200
9.25894	0.00000	5490.09200
9.26277	0.00000	5490.09200
9.26660	0.00000	5490.09200
9.27045	0.00000	5490.09200
9.27428	0.00000	5490.09200
9.27812	0.00000	5499.23800
9.28196	0.00000	5499.23800
9.28581	0.00000	5499.23800
9.28965	0.00000	5499.23800
9.29348	0.00000	5499.23800
9.29731	0.00000	5499.23800
9.30115	0.00000	5499.23800
9.30499	0.00000	5496.95100
9.30885	0.00000	5496.95100
9.31269	0.00000	5496.95100
9.31652	0.00000	5496.95100
9.32036	0.00000	5496.95100
9.32419	0.00000	5496.95100
9.32803	0.00000	5496.95100
9.33187	0.00000	5515.24400
9.33572	0.00000	5515.24400
9.33955	0.00000	5515.24400
9.34339	0.00000	5515.24400
9.34722	0.00000	5515.24400
9.35107	0.00000	5515.24400
9.35490	0.00000	5515.24400
9.35874	0.00000	5486.19500
9.36260	0.00000	5486.19500
9.36644	0.00000	5486.19500
9.37027	0.00000	5486.19500
9.37410	0.00000	5486.19500
9.37793	0.00000	5486.19500
9.38178	0.00000	5486.19500
9.38561	0.00000	5488.47100
9.38948	0.00000	5488.47100
9.39332	0.00000	5488.47100
9.39715	0.00000	5488.47100
9.40099	0.00000	5488.47100
9.40483	0.00000	5488.47100
9.40866	0.00000	5488.47100
9.41250	0.00000	5490.74600
9.41634	0.00000	5490.74600
9.42018	0.00000	5490.74600
9.42402	0.00000	5490.74600
9.42787	0.00000	5490.74600
9.43166	0.00000	5490.74600
9.43550	0.00000	5490.74600
9.43934	0.00000	5486.19500
9.44320	0.00000	5486.19500
9.44703	0.00000	5486.19500
9.45086	0.00000	5486.19500
9.45470	0.00000	5486.19500
9.45853	0.00000	5486.19500
9.46236	0.00000	5486.19500
9.46620	0.00000	5483.92000
9.47005	0.00000	5483.92000
9.47389	0.00000	5483.92000
9.47773	0.00000	5483.92000
9.48156	0.00000	5483.92000
9.48541	0.00000	5483.92000
9.48924	0.00000	5483.92000
9.49307	0.00000	5508.38400
9.49690	0.00000	5508.38400
9.50073	0.00000	5508.38400
9.50457	0.00000	5508.38400
9.50840	0.00000	5508.38400
9.51224	0.00000	5508.38400
9.51608	0.00000	5508.38400
9.51990	0.00000	5486.19500
9.52375	0.00000	5486.19500
9.52760	0.00000	5486.19500
9.53144	0.00000	5486.19500
9.53528	0.00000	5486.19500
9.53912	0.00000	5486.19500
9.54296	0.00000	5486.19500
9.54681	0.00000	5481.64400
9.55064	0.00000	5481.64400
9.55447	0.00000	5481.64400
9.55833	0.00000	5481.64400
9.56216	0.00000	5481.64400
9.56600	0.00000	5481.64400
9.56984	0.00000	5481.64400
9.57368	0.00000	5490.74600
9.57752	0.00000	5490.74600
9.58136	0.00000	5490.74600
9.58520	0.00000	5490.74600
9.58905	0.00000	5490.74600
9.59288	0.00000	5490.74600
9.59672	0.00000	5490.74600
9.60056	0.00000	5486.19500
9.60439	0.00000	5486.19500
9.60823	0.00000	5486.19500
9.61206	0.00000	5486.19500
9.61590	0.00000	5486.19500
9.61974	0.00000	5486.19500
9.62357	0.00000	5486.19500
9.62740	0.00000	5486.19500
9.63124	0.00000	5486.19500
9.63507	0.00000	5486.19500
9.63892	0.00000	5486.19500
9.64276	0.00000	5486.19500
9.64660	0.00000	5486.19500
9.65043	0.00000	5486.19500
9.65426	0.00000	5483.92000
9.65810	0.00000	5483.92000
9.66193	0.00000	5483.92000
9.66577	0.00000	5483.92000
9.66961	0.00000	5483.92000
9.67345	0.00000	5483.92000
9.67728	0.00000	5483.92000
9.68112	0.00000	5486.19500
9.68495	0.00000	5486.19500
9.68878	0.00000	5486.19500
9.69262	0.00000	5486.19500
9.69646	0.00000	5486.19500
9.70031	0.00000	5486.19500
9.70414	0.00000	5486.19500
9.70797	0.00000	5486.19500
9.71181	0.00000	5486.19500
9.71564	0.00000	5486.19500
9.71948	0.00000	5486.19500
9.72332	0.00000	5486.19500
9.72715	0.00000	5486.19500
9.73099	0.00000	5486.19500
9.73483	0.00000	5481.64400
9.73867	0.00000	5481.64400
9.74251	0.00000	5481.64400
9.74635	0.00000	5481.64400
9.75019	0.00000	5481.64400
9.75403	0.00000	5481.64400
9.75787	0.00000	5481.64400
9.76171	0.00000	5486.19500
9.76554	0.00000	5486.19500
9.76939	0.00000	5486.19500
9.77323	0.00000	5486.19500
9.77708	0.00000	5486.19500
9.78092	0.00000	5486.19500
9.78476	0.00000	5486.19500
9.78859	0.00000	5483.92000
9.79243	0.00000	5483.92000
9.79627	0.00000	5483.92000
9.80011	0.00000	5483.92000
9.80395	0.00000	5483.92000
9.80778	0.00000	5483.92000
9.81163	0.00000	5483.92000
9.81548	0.00000	5481.64400
9.81931	0.00000	5481.64400
9.82316	0.00000	5481.64400
9.82700	0.00000	5481.64400
9.83083	0.00000	5481.64400
9.83467	0.00000	5481.64400
9.83850	0.00000	5481.64400
9.84234	0.00000	5481.64400
9.84619	0.00000	5481.64400
9.85002	0.00000	5481.64400
9.85385	0.00000	5481.64400
9.85769	0.00000	5481.64400
9.86153	0.00000	5481.64400
9.86537	0.00000	5481.64400
9.86920	0.00000	5486.19500
9.87303	0.00000	5486.19500
9.87687	0.00000	5486.19500
9.88070	0.00000	5486.19500
9.88453	0.00000	5486.19500
9.88838	0.00000	5486.19500
9.89221	0.00000	5486.19500
9.89606	0.00000	5483.92000
9.89989	0.00000	5483.92000
9.90372	0.00000	5483.92000
9.90757	0.00000	5483.92000
9.91140	0.00000	5483.92000
9.91524	0.00000	5483.92000
9.91908	0.00000	5483.92000
9.92292	0.00000	5481.64400
9.92676	0.00000	5481.64400
9.93059	0.00000	5481.64400
9.93442	0.00000	5481.64400
9.93826	0.00000	5481.64400
9.94210	0.00000	5481.64400
9.94594	0.00000	5481.64400
9.94977	0.00000	5481.64400
9.95362	0.00000	5481.64400
9.95746	0.00000	5481.64400
9.96129	0.00000	5481.64400
9.96512	0.00000	5481.64400
9.96897	0.00000	5481.64400
9.97281	0.00000	5481.64400
9.97664	0.00000	5503.81100
9.98048	0.00000	5503.81100
9.98433	0.00000	5503.81100
9.98817	0.00000	5503.81100
9.99200	0.00000	5503.81100
9.99583	0.00000	5503.81100
9.99967	0.00000	5503.81100
