Time (s)   Thrust (N)   RPM
0.00029	0.00000	4946.75300
0.00417	0.00000	4946.75300
0.00802	0.00000	4979.46400
0.01192	0.00000	4979.46400
0.01580	0.00000	4979.46400
0.01965	0.00000	4979.46400
0.02353	0.00000	4979.46400
0.02757	0.00000	4979.46400
0.03143	0.00000	4819.50400
0.03526	0.00000	4819.50400
0.03911	0.00000	4819.50400
0.04294	0.00000	4819.50400
0.04678	0.00000	4819.50400
0.05060	0.00000	4819.50400
0.05444	0.00000	4555.21500
0.05826	0.00000	4555.21500
0.06208	0.00000	4555.21500
0.06592	0.00000	4555.21500
0.06974	0.00000	4555.21500
0.07357	0.00000	4297.37900
0.07740	0.00000	4297.37900
0.08124	0.00000	4297.37900
0.08506	0.00000	4297.37900
0.08888	0.00000	4297.37900
0.09271	0.00000	4104.73000
0.09654	0.00000	4104.73000
0.10036	0.00000	4104.73000
0.10419	0.00000	4104.73000
0.10802	0.00000	4104.73000
0.11185	0.00000	3927.01000
0.11567	0.00000	3927.01000
0.11951	0.00000	3927.01000
0.12333	0.00000	3927.01000
0.12716	0.00000	3927.01000
0.13098	0.00000	3794.15700
0.13481	0.00000	3794.15700
0.13864	0.00000	3794.15700
0.14246	0.00000	3794.15700
0.14626	0.00000	3645.05600
0.15010	0.00000	3645.05600
0.15392	0.00000	3645.05600
0.15775	0.00000	3645.05600
0.16158	0.00000	3645.05600
0.16541	0.00000	3478.61800
0.16923	0.00000	3478.61800
0.17305	0.00000	3478.61800
0.17687	0.00000	3478.61800
0.18070	0.00000	3382.99400
0.18453	0.00000	3382.99400
0.18835	0.00000	3382.99400
0.19218	0.00000	3382.99400
0.19602	0.00000	3382.99400
0.19984	0.00000	3292.32200
0.20367	0.00000	3292.32200
0.20750	0.00000	3292.32200
0.21133	0.00000	3292.32200
0.21516	0.00000	3198.08400
0.21899	0.00000	3198.08400
0.22282	0.00000	3198.08400
0.22665	0.00000	3198.08400
0.23047	0.00000	3090.70100
0.23426	0.00000	3090.70100
0.23809	0.00000	3090.70100
0.24191	0.00000	3090.70100
0.24573	0.00000	3017.82000
0.24956	0.00000	3017.82000
0.25339	0.00000	3017.82000
0.25721	0.00000	3017.82000
0.26103	0.00000	2958.24500
0.26486	0.00000	2958.24500
0.26870	0.00000	2958.24500
0.27252	0.00000	2958.24500
0.27634	0.00000	2859.76900
0.28017	0.00000	2859.76900
0.28399	0.00000	2859.76900
0.28782	0.00000	2859.76900
0.29165	0.00000	2796.47400
0.29547	0.00000	2796.47400
0.29929	0.00000	2796.47400
0.30312	0.00000	2796.47400
0.30695	0.00000	2755.43400
0.31077	0.00000	2755.43400
0.31460	0.00000	2755.43400
0.31842	0.00000	2755.43400
0.32224	0.00000	2705.59200
0.32607	0.00000	2705.59200
0.32989	0.00000	2705.59200
0.33371	0.00000	2705.59200
0.33753	0.00000	2635.69000
0.34135	0.00000	2635.69000
0.34517	0.00000	2635.69000
0.34900	0.00000	2635.69000
0.35283	0.00000	2596.79200
0.35666	0.00000	2596.79200
0.36048	0.00000	2596.79200
0.36430	0.00000	2596.79200
0.36813	0.00000	2557.19800
0.37196	0.00000	2557.19800
0.37578	0.00000	2557.19800
0.37960	0.00000	2557.19800
0.38343	0.00000	2516.89100
0.38725	0.00000	2516.89100
0.39107	0.00000	2516.89100
0.39489	0.00000	2516.89100
0.39871	0.00000	2466.21600
0.40254	0.00000	2466.21600
0.40636	0.00000	2466.21600
0.41020	0.00000	2466.21600
0.41403	0.00000	2428.97700
0.41786	0.00000	2428.97700
0.42169	0.00000	2428.97700
0.42552	0.00000	2386.75400
0.42934	0.00000	2386.75400
0.43316	0.00000	2386.75400
0.43698	0.00000	2386.75400
0.44080	0.00000	2360.95200
0.44463	0.00000	2360.95200
0.44845	0.00000	2360.95200
0.45227	0.00000	2360.95200
0.45609	0.00000	2335.06900
0.45992	0.00000	2335.06900
0.46374	0.00000	2335.06900
0.46756	0.00000	2335.06900
0.47138	0.00000	2296.00600
0.47521	0.00000	2296.00600
0.47903	0.00000	2296.00600
0.48284	0.00000	2264.89400
0.48666	0.00000	2264.89400
0.49049	0.00000	2264.89400
0.49431	0.00000	2264.89400
0.49813	0.00000	2226.56200
0.50196	0.00000	2226.56200
0.50578	0.00000	2226.56200
0.50959	0.00000	2226.56200
0.51341	0.00000	2207.94300
0.51724	0.00000	2207.94300
0.52106	0.00000	2207.94300
0.52488	0.00000	2188.97400
0.52872	0.00000	2188.97400
0.53254	0.00000	2188.97400
0.53637	0.00000	2188.97400
0.54020	0.00000	2171.28500
0.54402	0.00000	2171.28500
0.54784	0.00000	2171.28500
0.55166	0.00000	2171.28500
0.55549	0.00000	2140.33000
0.55930	0.00000	2140.33000
0.56313	0.00000	2140.33000
0.56695	0.00000	2116.07100
0.57078	0.00000	2116.07100
0.57460	0.00000	2116.07100
0.57842	0.00000	2116.07100
0.58224	0.00000	2111.60700
0.58607	0.00000	2111.60700
0.58989	0.00000	2111.60700
0.59372	0.00000	2111.60700
0.59754	0.00000	2080.35700
0.60135	0.00000	2080.35700
0.60518	0.00000	2080.35700
0.60900	0.00000	2068.81000
0.61282	0.00000	2068.81000
0.61665	0.00000	2068.81000
0.62047	0.00000	2068.81000
0.62430	0.00000	2059.79500
0.62812	0.00000	2059.79500
0.63195	0.00000	2059.79500
0.63577	0.00000	2047.93700
0.63959	0.00000	2047.93700
0.64342	0.00000	2047.93700
0.64724	0.00000	2047.93700
0.65106	0.00000	2014.72300
0.65489	0.00000	2014.72300
0.65871	0.00000	2014.72300
0.66254	0.00000	2006.97800
0.66636	0.00000	2006.97800
0.67018	0.00000	2006.97800
0.67400	0.00000	2006.97800
0.67782	0.00000	1988.77400
0.68164	0.00000	1988.77400
0.68546	0.00000	1988.77400
0.68929	0.00000	1988.77400
0.69311	0.00000	1965.14400
0.69692	0.00000	1965.14400
0.70074	0.00000	1965.14400
0.70457	0.00000	1952.36600
0.70842	0.00000	1952.36600
0.71225	0.00000	1952.36600
0.71607	0.00000	1952.36600
0.71990	0.00000	1947.81500
0.72372	0.00000	1947.81500
0.72755	0.00000	1947.81500
0.73137	0.00000	1939.33800
0.73519	0.00000	1939.33800
0.73901	0.00000	1939.33800
0.74284	0.00000	1939.33800
0.74666	0.00000	1915.95800
0.75048	0.00000	1915.95800
0.75426	0.00000	1915.95800
0.75808	0.00000	1911.76400
0.76191	0.00000	1911.76400
0.76573	0.00000	1911.76400
0.76956	0.00000	1911.76400
0.77338	0.00000	1893.20400
0.77720	0.00000	1893.20400
0.78102	0.00000	1893.20400
0.78484	0.00000	1893.38200
0.78867	0.00000	1893.38200
0.79248	0.00000	1893.38200
0.79630	0.00000	1893.38200
0.80012	0.00000	1884.19100
0.80395	0.00000	1884.19100
0.80777	0.00000	1884.19100
0.81159	0.00000	1861.21300
0.81541	0.00000	1861.21300
0.81922	0.00000	1861.21300
0.82304	0.00000	1861.21300
0.82686	0.00000	1879.64100
0.83068	0.00000	1879.64100
0.83450	0.00000	1879.64100
0.83832	0.00000	1842.83000
0.84214	0.00000	1842.83000
0.84596	0.00000	1842.83000
0.84978	0.00000	1842.83000
0.85359	0.00000	1856.43500
0.85741	0.00000	1856.43500
0.86123	0.00000	1856.43500
0.86505	0.00000	1856.43500
0.86887	0.00000	1847.15300
0.87269	0.00000	1847.15300
0.87652	0.00000	1847.15300
0.88033	0.00000	1851.56200
0.88416	0.00000	1851.56200
0.88798	0.00000	1851.56200
0.89180	0.00000	1851.56200
0.89562	0.00000	1833.23000
0.89939	0.00000	1833.23000
0.90321	0.00000	1833.23000
0.90703	0.00000	1814.66500
0.91086	0.00000	1814.66500
0.91468	0.00000	1814.66500
0.91850	0.00000	1810.02400
0.92232	0.00000	1810.02400
0.92614	0.00000	1810.02400
0.92996	0.00000	1810.02400
0.93378	0.00000	1818.75000
0.93761	0.00000	1818.75000
0.94144	0.00000	1818.75000
0.94527	0.00000	1814.06200
0.94909	0.00000	1814.06200
0.95291	0.00000	1814.06200
0.95673	0.00000	1814.06200
0.96054	0.00000	1809.37500
0.96437	0.00000	1809.37500
0.96820	0.00000	1809.37500
0.97203	0.00000	1800.00000
0.97586	0.00000	1800.00000
0.97969	0.00000	1800.00000
0.98355	0.00000	1800.00000
0.98738	0.00000	1800.00000
0.99121	0.00000	1800.00000
0.99504	0.00000	1800.00000
0.99887	0.00000	1785.93700
1.00270	0.00000	1785.93700
1.00652	0.00000	1785.93700
1.01035	0.00000	1785.93700
1.01417	0.00000	1790.62500
1.01799	0.00000	1790.62500
1.02182	0.00000	1790.62500
1.02564	0.00000	1776.56200
1.02947	0.00000	1776.56200
1.03332	0.00000	1776.56200
1.03713	0.00000	1776.56200
1.04096	0.00000	1763.61300
1.04478	0.00000	1763.61300
1.04861	0.00000	1763.61300
1.05244	0.00000	1767.18700
1.05626	0.00000	1767.18700
1.06008	0.00000	1767.18700
1.06390	0.00000	1767.18700
1.06772	0.00000	1754.33100
1.07155	0.00000	1754.33100
1.07537	0.00000	1754.33100
1.07920	0.00000	1757.81200
1.08303	0.00000	1757.81200
1.08686	0.00000	1757.81200
1.09069	0.00000	1757.81200
1.09451	0.00000	1767.18700
1.09834	0.00000	1767.18700
1.10216	0.00000	1767.18700
1.10599	0.00000	1766.09800
1.10981	0.00000	1766.09800
1.11363	0.00000	1766.09800
1.11745	0.00000	1766.09800
1.12126	0.00000	1748.43700
1.12509	0.00000	1748.43700
1.12892	0.00000	1748.43700
1.13274	0.00000	1739.06200
1.13656	0.00000	1739.06200
1.14038	0.00000	1739.06200
1.14420	0.00000	1739.06200
1.14802	0.00000	1739.06200
1.15184	0.00000	1739.06200
1.15566	0.00000	1739.06200
1.15948	0.00000	1743.75000
1.16330	0.00000	1743.75000
1.16712	0.00000	1743.75000
1.17094	0.00000	1747.15900
1.17477	0.00000	1747.15900
1.17859	0.00000	1747.15900
1.18241	0.00000	1747.15900
1.18624	0.00000	1721.84400
1.19008	0.00000	1721.84400
1.19393	0.00000	1721.84400
1.19776	0.00000	1737.68900
1.20159	0.00000	1737.68900
1.20541	0.00000	1737.68900
1.20923	0.00000	1737.68900
1.21305	0.00000	1729.68700
1.21688	0.00000	1729.68700
1.22070	0.00000	1729.68700
1.22454	0.00000	1737.68900
1.22837	0.00000	1737.68900
1.23220	0.00000	1737.68900
1.23602	0.00000	1737.68900
1.23985	0.00000	1725.00000
1.24367	0.00000	1725.00000
1.24749	0.00000	1725.00000
1.25132	0.00000	1728.21900
1.25514	0.00000	1728.21900
1.25896	0.00000	1728.21900
1.26278	0.00000	1728.21900
1.26661	0.00000	1728.21900
1.27044	0.00000	1728.21900
1.27426	0.00000	1728.21900
1.27808	0.00000	1728.21900
1.28190	0.00000	1728.21900
1.28573	0.00000	1728.21900
1.28955	0.00000	1706.25000
1.29337	0.00000	1706.25000
1.29719	0.00000	1706.25000
1.30101	0.00000	1706.25000
1.30483	0.00000	1715.62500
1.30865	0.00000	1715.62500
1.31247	0.00000	1715.62500
1.31629	0.00000	1718.75000
1.32011	0.00000	1718.75000
1.32393	0.00000	1718.75000
1.32775	0.00000	1718.75000
1.33158	0.00000	1732.95400
1.33541	0.00000	1732.95400
1.33923	0.00000	1732.95400
1.34306	0.00000	1714.01500
1.34688	0.00000	1714.01500
1.35069	0.00000	1714.01500
1.35452	0.00000	1714.01500
1.35833	0.00000	1706.25000
1.36216	0.00000	1706.25000
1.36597	0.00000	1706.25000
1.36979	0.00000	1714.01500
1.37362	0.00000	1714.01500
1.37744	0.00000	1714.01500
1.38126	0.00000	1714.01500
1.38509	0.00000	1714.01500
1.38892	0.00000	1714.01500
1.39273	0.00000	1714.01500
1.39656	0.00000	1714.01500
1.40038	0.00000	1714.01500
1.40420	0.00000	1714.01500
1.40803	0.00000	1709.28000
1.41185	0.00000	1709.28000
1.41567	0.00000	1709.28000
1.41949	0.00000	1709.28000
1.42331	0.00000	1714.01500
1.42713	0.00000	1714.01500
1.43095	0.00000	1714.01500
1.43477	0.00000	1704.54500
1.43860	0.00000	1704.54500
1.44243	0.00000	1704.54500
1.44625	0.00000	1704.54500
1.45007	0.00000	1696.87500
1.45389	0.00000	1696.87500
1.45771	0.00000	1696.87500
1.46153	0.00000	1704.54500
1.46534	0.00000	1704.54500
1.46916	0.00000	1704.54500
1.47298	0.00000	1699.81000
1.47680	0.00000	1699.81000
1.48062	0.00000	1699.81000
1.48444	0.00000	1699.81000
1.48826	0.00000	1699.81000
1.49208	0.00000	1699.81000
1.49590	0.00000	1699.81000
1.49972	0.00000	1699.81000
1.50354	0.00000	1699.81000
1.50737	0.00000	1699.81000
1.51119	0.00000	1699.81000
1.51501	0.00000	1709.28000
1.51884	0.00000	1709.28000
1.52266	0.00000	1709.28000
1.52648	0.00000	1695.07500
1.53026	0.00000	1695.07500
1.53409	0.00000	1695.07500
1.53791	0.00000	1695.07500
1.54173	0.00000	1692.18700
1.54555	0.00000	1692.18700
1.54938	0.00000	1692.18700
1.55319	0.00000	1699.81000
1.55701	0.00000	1699.81000
1.56083	0.00000	1699.81000
1.56466	0.00000	1699.81000
1.56848	0.00000	1682.81200
1.57229	0.00000	1682.81200
1.57612	0.00000	1682.81200
1.57994	0.00000	1699.81000
1.58376	0.00000	1699.81000
1.58758	0.00000	1699.81000
1.59141	0.00000	1690.34000
1.59523	0.00000	1690.34000
1.59905	0.00000	1690.34000
1.60287	0.00000	1690.34000
1.60669	0.00000	1695.07500
1.61051	0.00000	1695.07500
1.61434	0.00000	1695.07500
1.61815	0.00000	1690.34000
1.62197	0.00000	1690.34000
1.62580	0.00000	1690.34000
1.62961	0.00000	1690.34000
1.63343	0.00000	1682.81200
1.63725	0.00000	1682.81200
1.64107	0.00000	1682.81200
1.64489	0.00000	1690.34000
1.64870	0.00000	1690.34000
1.65253	0.00000	1690.34000
1.65634	0.00000	1690.34000
1.66016	0.00000	1678.12500
1.66398	0.00000	1678.12500
1.66780	0.00000	1678.12500
1.67161	0.00000	1690.34000
1.67543	0.00000	1690.34000
1.67926	0.00000	1690.34000
1.68308	0.00000	1690.34000
1.68691	0.00000	1690.34000
1.69072	0.00000	1690.34000
1.69454	0.00000	1690.34000
1.69836	0.00000	1695.07500
1.70219	0.00000	1695.07500
1.70601	0.00000	1695.07500
1.70983	0.00000	1690.34000
1.71366	0.00000	1690.34000
1.71749	0.00000	1690.34000
1.72131	0.00000	1690.34000
1.72515	0.00000	1699.81000
1.72897	0.00000	1699.81000
1.73279	0.00000	1699.81000
1.73661	0.00000	1680.87100
1.74044	0.00000	1680.87100
1.74426	0.00000	1680.87100
1.74808	0.00000	1680.87100
1.75190	0.00000	1695.07500
1.75573	0.00000	1695.07500
1.75955	0.00000	1695.07500
1.76337	0.00000	1685.60600
1.76719	0.00000	1685.60600
1.77102	0.00000	1685.60600
1.77484	0.00000	1680.87100
1.77866	0.00000	1680.87100
1.78248	0.00000	1680.87100
1.78626	0.00000	1680.87100
1.79009	0.00000	1690.34000
1.79391	0.00000	1690.34000
1.79773	0.00000	1690.34000
1.80155	0.00000	1680.87100
1.80538	0.00000	1680.87100
1.80919	0.00000	1680.87100
1.81301	0.00000	1680.87100
1.81684	0.00000	1673.43700
1.82068	0.00000	1673.43700
1.82451	0.00000	1673.43700
1.82833	0.00000	1685.60600
1.83215	0.00000	1685.60600
1.83598	0.00000	1685.60600
1.83980	0.00000	1685.60600
1.84373	0.00000	1685.60600
1.84757	0.00000	1685.60600
1.85139	0.00000	1685.60600
1.85522	0.00000	1676.13600
1.85904	0.00000	1676.13600
1.86286	0.00000	1676.13600
1.86668	0.00000	1685.60600
1.87050	0.00000	1685.60600
1.87432	0.00000	1685.60600
1.87814	0.00000	1685.60600
1.88197	0.00000	1680.87100
1.88579	0.00000	1680.87100
1.88962	0.00000	1680.87100
1.89344	0.00000	1680.87100
1.89726	0.00000	1680.87100
1.90108	0.00000	1680.87100
1.90490	0.00000	1680.87100
1.90872	0.00000	1695.07500
1.91254	0.00000	1695.07500
1.91637	0.00000	1695.07500
1.92019	0.00000	1698.02300
1.92401	0.00000	1698.02300
1.92783	0.00000	1698.02300
1.93166	0.00000	1698.02300
1.93549	0.00000	1690.34000
1.93931	0.00000	1690.34000
1.94316	0.00000	1690.34000
1.94700	0.00000	1680.87100
1.95083	0.00000	1680.87100
1.95465	0.00000	1680.87100
1.95847	0.00000	1676.13600
1.96231	0.00000	1676.13600
1.96613	0.00000	1676.13600
1.96995	0.00000	1676.13600
1.97377	0.00000	1690.34000
1.97759	0.00000	1690.34000
1.98142	0.00000	1690.34000
1.98528	0.00000	1680.87100
1.98911	0.00000	1680.87100
1.99294	0.00000	1680.87100
1.99676	0.00000	1680.87100
2.00059	0.00000	1678.12500
2.00441	0.00000	1678.12500
2.00823	0.00000	1678.12500
2.01205	0.00000	1680.87100
2.01587	0.00000	1680.87100
2.01969	0.00000	1680.87100
2.02351	0.00000	1680.87100
2.02733	0.00000	1685.60600
2.03116	0.00000	1685.60600
2.03498	0.00000	1685.60600
2.03880	0.00000	1676.13600
2.04263	0.00000	1676.13600
2.04645	0.00000	1676.13600
2.05026	0.00000	1680.87100
2.05409	0.00000	1680.87100
2.05790	0.00000	1680.87100
2.06173	0.00000	1680.87100
2.06555	0.00000	1685.60600
2.06937	0.00000	1685.60600
2.07319	0.00000	1685.60600
2.07701	0.00000	1698.02300
2.08083	0.00000	1698.02300
2.08465	0.00000	1698.02300
2.08847	0.00000	1698.02300
2.09230	0.00000	1690.34000
2.09612	0.00000	1690.34000
2.09994	0.00000	1690.34000
2.10376	0.00000	1693.23900
2.10759	0.00000	1693.23900
2.11141	0.00000	1693.23900
2.11523	0.00000	1693.23900
2.11905	0.00000	1680.87100
2.12287	0.00000	1680.87100
2.12670	0.00000	1680.87100
2.13052	0.00000	1671.40100
2.13434	0.00000	1671.40100
2.13815	0.00000	1671.40100
2.14198	0.00000	1676.13600
2.14582	0.00000	1676.13600
2.14964	0.00000	1676.13600
2.15346	0.00000	1676.13600
2.15728	0.00000	1673.43700
2.16110	0.00000	1673.43700
2.16492	0.00000	1673.43700
2.16874	0.00000	1676.13600
2.17256	0.00000	1676.13600
2.17638	0.00000	1676.13600
2.18020	0.00000	1676.13600
2.18403	0.00000	1690.34000
2.18784	0.00000	1690.34000
2.19166	0.00000	1690.34000
2.19549	0.00000	1676.13600
2.19931	0.00000	1676.13600
2.20313	0.00000	1676.13600
2.20695	0.00000	1676.13600
2.21077	0.00000	1680.87100
2.21460	0.00000	1680.87100
2.21842	0.00000	1680.87100
2.22225	0.00000	1676.13600
2.22609	0.00000	1676.13600
2.22991	0.00000	1676.13600
2.23374	0.00000	1676.13600
2.23756	0.00000	1676.13600
2.24138	0.00000	1676.13600
2.24520	0.00000	1676.13600
2.24902	0.00000	1690.34000
2.25284	0.00000	1690.34000
2.25667	0.00000	1690.34000
2.26049	0.00000	1676.13600
2.26431	0.00000	1676.13600
2.26813	0.00000	1676.13600
2.27195	0.00000	1676.13600
2.27577	0.00000	1668.75000
2.27960	0.00000	1668.75000
2.28343	0.00000	1668.75000
2.28725	0.00000	1676.13600
2.29107	0.00000	1676.13600
2.29489	0.00000	1676.13600
2.29872	0.00000	1676.13600
2.30253	0.00000	1676.13600
2.30635	0.00000	1676.13600
2.31017	0.00000	1676.13600
2.31400	0.00000	1693.23900
2.31782	0.00000	1693.23900
2.32164	0.00000	1693.23900
2.32546	0.00000	1693.23900
2.32930	0.00000	1693.23900
2.33313	0.00000	1693.23900
2.33695	0.00000	1693.23900
2.34077	0.00000	1685.60600
2.34459	0.00000	1685.60600
2.34842	0.00000	1685.60600
2.35224	0.00000	1676.13600
2.35606	0.00000	1676.13600
2.35988	0.00000	1676.13600
2.36370	0.00000	1676.13600
2.36753	0.00000	1673.43700
2.37134	0.00000	1673.43700
2.37517	0.00000	1673.43700
2.37899	0.00000	1671.40100
2.38281	0.00000	1671.40100
2.38664	0.00000	1671.40100
2.39047	0.00000	1676.13600
2.39426	0.00000	1676.13600
2.39808	0.00000	1676.13600
2.40191	0.00000	1676.13600
2.40573	0.00000	1680.87100
2.40955	0.00000	1680.87100
2.41337	0.00000	1680.87100
2.41719	0.00000	1688.45600
2.42102	0.00000	1688.45600
2.42484	0.00000	1688.45600
2.42866	0.00000	1688.45600
2.43249	0.00000	1685.60600
2.43631	0.00000	1685.60600
2.44013	0.00000	1685.60600
2.44395	0.00000	1676.13600
2.44778	0.00000	1676.13600
2.45159	0.00000	1676.13600
2.45542	0.00000	1676.13600
2.45924	0.00000	1668.75000
2.46306	0.00000	1668.75000
2.46688	0.00000	1668.75000
2.47070	0.00000	1676.13600
2.47452	0.00000	1676.13600
2.47834	0.00000	1676.13600
2.48216	0.00000	1671.40100
2.48598	0.00000	1671.40100
2.48979	0.00000	1671.40100
2.49363	0.00000	1671.40100
2.49745	0.00000	1688.45600
2.50127	0.00000	1688.45600
2.50509	0.00000	1688.45600
2.50891	0.00000	1676.13600
2.51273	0.00000	1676.13600
2.51655	0.00000	1676.13600
2.52037	0.00000	1676.13600
2.52419	0.00000	1685.60600
2.52801	0.00000	1685.60600
2.53184	0.00000	1685.60600
2.53566	0.00000	1693.23900
2.53949	0.00000	1693.23900
2.54331	0.00000	1693.23900
2.54713	0.00000	1693.23900
2.55096	0.00000	1685.60600
2.55478	0.00000	1685.60600
2.55861	0.00000	1685.60600
2.56243	0.00000	1671.40100
2.56625	0.00000	1671.40100
2.57007	0.00000	1671.40100
2.57390	0.00000	1676.13600
2.57772	0.00000	1676.13600
2.58155	0.00000	1676.13600
2.58536	0.00000	1676.13600
2.58918	0.00000	1676.13600
2.59300	0.00000	1676.13600
2.59682	0.00000	1676.13600
2.60064	0.00000	1671.40100
2.60447	0.00000	1671.40100
2.60829	0.00000	1671.40100
2.61211	0.00000	1671.40100
2.61593	0.00000	1685.60600
2.61975	0.00000	1685.60600
2.62357	0.00000	1685.60600
2.62739	0.00000	1693.23900
2.63121	0.00000	1693.23900
2.63503	0.00000	1693.23900
2.63885	0.00000	1693.23900
2.64267	0.00000	1685.60600
2.64649	0.00000	1685.60600
2.65031	0.00000	1685.60600
2.65414	0.00000	1671.40100
2.65796	0.00000	1671.40100
2.66178	0.00000	1671.40100
2.66560	0.00000	1671.40100
2.66941	0.00000	1671.40100
2.67323	0.00000	1671.40100
2.67705	0.00000	1671.40100
2.68087	0.00000	1680.87100
2.68470	0.00000	1680.87100
2.68852	0.00000	1680.87100
2.69234	0.00000	1671.40100
2.69616	0.00000	1671.40100
2.69997	0.00000	1671.40100
2.70379	0.00000	1671.40100
2.70762	0.00000	1685.60600
2.71144	0.00000	1685.60600
2.71526	0.00000	1685.60600
2.71909	0.00000	1693.23900
2.72293	0.00000	1693.23900
2.72675	0.00000	1693.23900
2.73057	0.00000	1693.23900
2.73440	0.00000	1680.87100
2.73822	0.00000	1680.87100
2.74205	0.00000	1680.87100
2.74587	0.00000	1671.40100
2.74970	0.00000	1671.40100
2.75352	0.00000	1671.40100
2.75734	0.00000	1676.13600
2.76116	0.00000	1676.13600
2.76498	0.00000	1676.13600
2.76880	0.00000	1676.13600
2.77262	0.00000	1664.06200
2.77644	0.00000	1664.06200
2.78026	0.00000	1664.06200
2.78409	0.00000	1671.40100
2.78792	0.00000	1671.40100
2.79173	0.00000	1671.40100
2.79556	0.00000	1671.40100
2.79938	0.00000	1685.60600
2.80320	0.00000	1685.60600
2.80702	0.00000	1685.60600
2.81084	0.00000	1688.45600
2.81467	0.00000	1688.45600
2.81849	0.00000	1688.45600
2.82231	0.00000	1688.45600
2.82613	0.00000	1659.37500
2.82995	0.00000	1659.37500
2.83377	0.00000	1659.37500
2.83759	0.00000	1671.40100
2.84141	0.00000	1671.40100
2.84523	0.00000	1671.40100
2.84905	0.00000	1671.40100
2.85288	0.00000	1671.40100
2.85671	0.00000	1671.40100
2.86053	0.00000	1671.40100
2.86435	0.00000	1685.60600
2.86817	0.00000	1685.60600
2.87199	0.00000	1685.60600
2.87581	0.00000	1688.45600
2.87963	0.00000	1688.45600
2.88345	0.00000	1688.45600
2.88728	0.00000	1688.45600
2.89110	0.00000	1680.87100
2.89492	0.00000	1680.87100
2.89874	0.00000	1680.87100
2.90256	0.00000	1676.13600
2.90638	0.00000	1676.13600
2.91022	0.00000	1676.13600
2.91405	0.00000	1676.13600
2.91787	0.00000	1671.40100
2.92169	0.00000	1671.40100
2.92551	0.00000	1671.40100
2.92933	0.00000	1676.13600
2.93316	0.00000	1676.13600
2.93698	0.00000	1676.13600
2.94080	0.00000	1676.13600
2.94463	0.00000	1676.13600
2.94850	0.00000	1676.13600
2.95236	0.00000	1676.13600
2.95619	0.00000	1685.60600
2.96001	0.00000	1685.60600
2.96385	0.00000	1685.60600
2.96767	0.00000	1688.45600
2.97151	0.00000	1688.45600
2.97534	0.00000	1688.45600
2.97917	0.00000	1688.45600
2.98301	0.00000	1685.60600
2.98687	0.00000	1685.60600
2.99071	0.00000	1685.60600
2.99454	0.00000	1666.66600
2.99836	0.00000	1666.66600
3.00218	0.00000	1666.66600
3.00600	0.00000	1676.13600
3.00985	0.00000	1676.13600
3.01367	0.00000	1676.13600
3.01749	0.00000	1676.13600
3.02132	0.00000	1680.87100
3.02514	0.00000	1680.87100
3.02898	0.00000	1680.87100
3.03280	0.00000	1666.66600
3.03662	0.00000	1666.66600
3.04044	0.00000	1666.66600
3.04426	0.00000	1666.66600
3.04808	0.00000	1685.60600
3.05190	0.00000	1685.60600
3.05572	0.00000	1685.60600
3.05954	0.00000	1693.23900
3.06336	0.00000	1693.23900
3.06718	0.00000	1693.23900
3.07101	0.00000	1693.23900
3.07483	0.00000	1680.87100
3.07865	0.00000	1680.87100
3.08248	0.00000	1680.87100
3.08626	0.00000	1676.13600
3.09010	0.00000	1676.13600
3.09392	0.00000	1676.13600
3.09774	0.00000	1671.40100
3.10157	0.00000	1671.40100
3.10539	0.00000	1671.40100
3.10921	0.00000	1671.40100
3.11303	0.00000	1676.13600
3.11685	0.00000	1676.13600
3.12067	0.00000	1676.13600
3.12450	0.00000	1671.40100
3.12833	0.00000	1671.40100
3.13215	0.00000	1671.40100
3.13597	0.00000	1671.40100
3.13980	0.00000	1680.87100
3.14363	0.00000	1680.87100
3.14745	0.00000	1680.87100
3.15127	0.00000	1693.23900
3.15508	0.00000	1693.23900
3.15890	0.00000	1693.23900
3.16272	0.00000	1693.23900
3.16654	0.00000	1688.45600
3.17037	0.00000	1688.45600
3.17419	0.00000	1688.45600
3.17801	0.00000	1671.40100
3.18183	0.00000	1671.40100
3.18565	0.00000	1671.40100
3.18947	0.00000	1676.13600
3.19331	0.00000	1676.13600
3.19712	0.00000	1676.13600
3.20094	0.00000	1676.13600
3.20476	0.00000	1680.87100
3.20858	0.00000	1680.87100
3.21241	0.00000	1680.87100
3.21623	0.00000	1688.45600
3.22006	0.00000	1688.45600
3.22389	0.00000	1688.45600
3.22771	0.00000	1688.45600
3.23153	0.00000	1680.87100
3.23535	0.00000	1680.87100
3.23918	0.00000	1680.87100
3.24300	0.00000	1666.66600
3.24683	0.00000	1666.66600
3.25065	0.00000	1666.66600
3.25447	0.00000	1676.13600
3.25826	0.00000	1676.13600
3.26208	0.00000	1676.13600
3.26590	0.00000	1676.13600
3.26972	0.00000	1671.40100
3.27355	0.00000	1671.40100
3.27737	0.00000	1671.40100
3.28119	0.00000	1671.40100
3.28501	0.00000	1671.40100
3.28884	0.00000	1671.40100
3.29267	0.00000	1671.40100
3.29650	0.00000	1685.60600
3.30032	0.00000	1685.60600
3.30414	0.00000	1685.60600
3.30797	0.00000	1683.67300
3.31178	0.00000	1683.67300
3.31561	0.00000	1683.67300
3.31939	0.00000	1683.67300
3.32321	0.00000	1664.06200
3.32703	0.00000	1664.06200
3.33086	0.00000	1664.06200
3.33467	0.00000	1671.40100
3.33849	0.00000	1671.40100
3.34231	0.00000	1671.40100
3.34613	0.00000	1671.40100
3.34994	0.00000	1671.40100
3.35376	0.00000	1671.40100
3.35759	0.00000	1671.40100
3.36141	0.00000	1693.23900
3.36523	0.00000	1693.23900
3.36905	0.00000	1693.23900
3.37288	0.00000	1688.45600
3.37670	0.00000	1688.45600
3.38052	0.00000	1688.45600
3.38434	0.00000	1688.45600
3.38816	0.00000	1676.13600
3.39197	0.00000	1676.13600
3.39579	0.00000	1676.13600
3.39962	0.00000	1671.40100
3.40347	0.00000	1671.40100
3.40730	0.00000	1671.40100
3.41113	0.00000	1671.40100
3.41495	0.00000	1664.06200
3.41879	0.00000	1664.06200
3.42260	0.00000	1664.06200
3.42642	0.00000	1666.66600
3.43026	0.00000	1666.66600
3.43410	0.00000	1666.66600
3.43791	0.00000	1683.67300
3.44174	0.00000	1683.67300
3.44556	0.00000	1683.67300
3.44939	0.00000	1683.67300
3.45321	0.00000	1676.13600
3.45703	0.00000	1676.13600
3.46085	0.00000	1676.13600
3.46467	0.00000	1666.66600
3.46850	0.00000	1666.66600
3.47232	0.00000	1666.66600
3.47614	0.00000	1666.66600
3.47996	0.00000	1664.06200
3.48377	0.00000	1664.06200
3.48759	0.00000	1664.06200
3.49141	0.00000	1671.40100
3.49523	0.00000	1671.40100
3.49905	0.00000	1671.40100
3.50287	0.00000	1671.40100
3.50670	0.00000	1676.13600
3.51052	0.00000	1676.13600
3.51434	0.00000	1676.13600
3.51816	0.00000	1671.40100
3.52198	0.00000	1671.40100
3.52580	0.00000	1671.40100
3.52962	0.00000	1666.66600
3.53344	0.00000	1666.66600
3.53726	0.00000	1666.66600
3.54108	0.00000	1666.66600
3.54491	0.00000	1659.37500
3.54873	0.00000	1659.37500
3.55256	0.00000	1659.37500
3.55638	0.00000	1666.66600
3.56020	0.00000	1666.66600
3.56402	0.00000	1666.66600
3.56784	0.00000	1666.66600
3.57167	0.00000	1680.87100
3.57549	0.00000	1680.87100
3.57931	0.00000	1680.87100
3.58313	0.00000	1683.67300
3.58696	0.00000	1683.67300
3.59078	0.00000	1683.67300
3.59460	0.00000	1683.67300
3.59842	0.00000	1671.40100
3.60225	0.00000	1671.40100
3.60608	0.00000	1671.40100
3.60990	0.00000	1671.40100
3.61373	0.00000	1671.40100
3.61754	0.00000	1671.40100
3.62136	0.00000	1671.40100
3.62519	0.00000	1671.40100
3.62901	0.00000	1671.40100
3.63283	0.00000	1671.40100
3.63665	0.00000	1680.87100
3.64047	0.00000	1680.87100
3.64429	0.00000	1680.87100
3.64812	0.00000	1683.67300
3.65194	0.00000	1683.67300
3.65576	0.00000	1683.67300
3.65959	0.00000	1683.67300
3.66340	0.00000	1664.06200
3.66723	0.00000	1664.06200
3.67105	0.00000	1664.06200
3.67487	0.00000	1666.66600
3.67870	0.00000	1666.66600
3.68252	0.00000	1666.66600
3.68633	0.00000	1671.40100
3.69015	0.00000	1671.40100
3.69397	0.00000	1671.40100
3.69779	0.00000	1671.40100
3.70161	0.00000	1688.45600
3.70543	0.00000	1688.45600
3.70924	0.00000	1688.45600
3.71306	0.00000	1683.67300
3.71689	0.00000	1683.67300
3.72071	0.00000	1683.67300
3.72453	0.00000	1683.67300
3.72835	0.00000	1680.87100
3.73217	0.00000	1680.87100
3.73599	0.00000	1680.87100
3.73981	0.00000	1666.66600
3.74363	0.00000	1666.66600
3.74745	0.00000	1666.66600
3.75127	0.00000	1666.66600
3.75509	0.00000	1676.13600
3.75892	0.00000	1676.13600
3.76274	0.00000	1676.13600
3.76657	0.00000	1688.45600
3.77039	0.00000	1688.45600
3.77422	0.00000	1688.45600
3.77804	0.00000	1683.67300
3.78186	0.00000	1683.67300
3.78569	0.00000	1683.67300
3.78951	0.00000	1683.67300
3.79334	0.00000	1671.40100
3.79717	0.00000	1671.40100
3.80099	0.00000	1671.40100
3.80481	0.00000	1671.40100
3.80863	0.00000	1671.40100
3.81245	0.00000	1671.40100
3.81627	0.00000	1671.40100
3.82009	0.00000	1680.87100
3.82392	0.00000	1680.87100
3.82774	0.00000	1680.87100
3.83156	0.00000	1688.45600
3.83538	0.00000	1688.45600
3.83920	0.00000	1688.45600
3.84301	0.00000	1688.45600
3.84683	0.00000	1676.13600
3.85065	0.00000	1676.13600
3.85447	0.00000	1676.13600
3.85826	0.00000	1666.66600
3.86208	0.00000	1666.66600
3.86590	0.00000	1666.66600
3.86971	0.00000	1666.66600
3.87353	0.00000	1666.66600
3.87735	0.00000	1666.66600
3.88117	0.00000	1666.66600
3.88499	0.00000	1693.23900
3.88882	0.00000	1693.23900
3.89264	0.00000	1693.23900
3.89647	0.00000	1683.67300
3.90029	0.00000	1683.67300
3.90411	0.00000	1683.67300
3.90794	0.00000	1683.67300
3.91177	0.00000	1680.87100
3.91560	0.00000	1680.87100
3.91939	0.00000	1680.87100
3.92322	0.00000	1666.66600
3.92704	0.00000	1666.66600
3.93086	0.00000	1666.66600
3.93468	0.00000	1666.66600
3.93851	0.00000	1680.87100
3.94233	0.00000	1680.87100
3.94615	0.00000	1680.87100
3.94997	0.00000	1671.40100
3.95379	0.00000	1671.40100
3.95761	0.00000	1671.40100
3.96144	0.00000	1671.40100
3.96526	0.00000	1671.40100
3.96908	0.00000	1671.40100
3.97290	0.00000	1671.40100
3.97672	0.00000	1676.13600
3.98054	0.00000	1676.13600
3.98440	0.00000	1676.13600
3.98824	0.00000	1666.66600
3.99207	0.00000	1666.66600
3.99589	0.00000	1666.66600
3.99971	0.00000	1666.66600
4.00354	0.00000	1659.37500
4.00737	0.00000	1659.37500
4.01119	0.00000	1659.37500
4.01502	0.00000	1666.66600
4.01884	0.00000	1666.66600
4.02266	0.00000	1666.66600
4.02649	0.00000	1666.66600
4.03031	0.00000	1671.40100
4.03414	0.00000	1671.40100
4.03796	0.00000	1671.40100
4.04179	0.00000	1666.66600
4.04561	0.00000	1666.66600
4.04944	0.00000	1666.66600
4.05326	0.00000	1671.40100
4.05708	0.00000	1671.40100
4.06090	0.00000	1671.40100
4.06472	0.00000	1671.40100
4.06854	0.00000	1664.06200
4.07236	0.00000	1664.06200
4.07619	0.00000	1664.06200
4.08001	0.00000	1671.40100
4.08383	0.00000	1671.40100
4.08765	0.00000	1671.40100
4.09147	0.00000	1671.40100
4.09529	0.00000	1680.87100
4.09911	0.00000	1680.87100
4.10293	0.00000	1680.87100
4.10675	0.00000	1683.67300
4.11058	0.00000	1683.67300
4.11440	0.00000	1683.67300
4.11822	0.00000	1683.67300
4.12204	0.00000	1683.67300
4.12587	0.00000	1683.67300
4.12970	0.00000	1683.67300
4.13352	0.00000	1666.66600
4.13734	0.00000	1666.66600
4.14116	0.00000	1666.66600
4.14499	0.00000	1678.89000
4.14881	0.00000	1678.89000
4.15263	0.00000	1678.89000
4.15646	0.00000	1678.89000
4.16028	0.00000	1676.13600
4.16410	0.00000	1676.13600
4.16792	0.00000	1676.13600
4.17175	0.00000	1666.66600
4.17557	0.00000	1666.66600
4.17939	0.00000	1666.66600
4.18321	0.00000	1666.66600
4.18704	0.00000	1676.13600
4.19085	0.00000	1676.13600
4.19468	0.00000	1676.13600
4.19850	0.00000	1666.66600
4.20232	0.00000	1666.66600
4.20614	0.00000	1666.66600
4.20997	0.00000	1683.67300
4.21380	0.00000	1683.67300
4.21762	0.00000	1683.67300
4.22144	0.00000	1683.67300
4.22526	0.00000	1671.40100
4.22908	0.00000	1671.40100
4.23292	0.00000	1671.40100
4.23673	0.00000	1661.93100
4.24055	0.00000	1661.93100
4.24438	0.00000	1661.93100
4.24820	0.00000	1661.93100
4.25202	0.00000	1676.13600
4.25584	0.00000	1676.13600
4.25967	0.00000	1676.13600
4.26349	0.00000	1683.67300
4.26730	0.00000	1683.67300
4.27112	0.00000	1683.67300
4.27495	0.00000	1683.67300
4.27877	0.00000	1666.66600
4.28259	0.00000	1666.66600
4.28642	0.00000	1666.66600
4.29024	0.00000	1661.93100
4.29406	0.00000	1661.93100
4.29789	0.00000	1661.93100
4.30170	0.00000	1671.40100
4.30552	0.00000	1671.40100
4.30935	0.00000	1671.40100
4.31317	0.00000	1671.40100
4.31699	0.00000	1676.13600
4.32082	0.00000	1676.13600
4.32464	0.00000	1676.13600
4.32846	0.00000	1678.89000
4.33229	0.00000	1678.89000
4.33611	0.00000	1678.89000
4.33992	0.00000	1678.89000
4.34375	0.00000	1676.13600
4.34757	0.00000	1676.13600
4.35140	0.00000	1676.13600
4.35522	0.00000	1657.19600
4.35903	0.00000	1657.19600
4.36285	0.00000	1657.19600
4.36668	0.00000	1666.66600
4.37049	0.00000	1666.66600
4.37431	0.00000	1666.66600
4.37814	0.00000	1666.66600
4.38195	0.00000	1666.66600
4.38578	0.00000	1666.66600
4.38961	0.00000	1666.66600
4.39343	0.00000	1657.19600
4.39725	0.00000	1657.19600
4.40107	0.00000	1657.19600
4.40489	0.00000	1657.19600
4.40873	0.00000	1676.13600
4.41255	0.00000	1676.13600
4.41638	0.00000	1676.13600
4.42020	0.00000	1678.89000
4.42403	0.00000	1678.89000
4.42785	0.00000	1678.89000
4.43166	0.00000	1678.89000
4.43548	0.00000	1676.13600
4.43930	0.00000	1676.13600
4.44312	0.00000	1676.13600
4.44695	0.00000	1666.66600
4.45077	0.00000	1666.66600
4.45459	0.00000	1666.66600
4.45841	0.00000	1666.66600
4.46223	0.00000	1666.66600
4.46606	0.00000	1666.66600
4.46988	0.00000	1666.66600
4.47370	0.00000	1661.93100
4.47752	0.00000	1661.93100
4.48134	0.00000	1661.93100
4.48515	0.00000	1683.67300
4.48898	0.00000	1683.67300
4.49280	0.00000	1683.67300
4.49662	0.00000	1683.67300
4.50044	0.00000	1659.37500
4.50426	0.00000	1659.37500
4.50809	0.00000	1659.37500
4.51190	0.00000	1666.66600
4.51572	0.00000	1666.66600
4.51954	0.00000	1666.66600
4.52336	0.00000	1666.66600
4.52717	0.00000	1676.13600
4.53099	0.00000	1676.13600
4.53481	0.00000	1676.13600
4.53864	0.00000	1661.93100
4.54246	0.00000	1661.93100
4.54626	0.00000	1661.93100
4.55008	0.00000	1666.66600
4.55391	0.00000	1666.66600
4.55774	0.00000	1666.66600
4.56156	0.00000	1666.66600
4.56538	0.00000	1671.40100
4.56920	0.00000	1671.40100
4.57303	0.00000	1671.40100
4.57685	0.00000	1678.89000
4.58067	0.00000	1678.89000
4.58450	0.00000	1678.89000
4.58832	0.00000	1678.89000
4.59213	0.00000	1676.13600
4.59596	0.00000	1676.13600
4.59978	0.00000	1676.13600
4.60360	0.00000	1661.93100
4.60742	0.00000	1661.93100
4.61124	0.00000	1661.93100
4.61506	0.00000	1661.93100
4.61888	0.00000	1661.93100
4.62269	0.00000	1661.93100
4.62651	0.00000	1661.93100
4.63033	0.00000	1678.89000
4.63415	0.00000	1678.89000
4.63797	0.00000	1678.89000
4.64178	0.00000	1678.89000
4.64560	0.00000	1678.89000
4.64942	0.00000	1678.89000
4.65326	0.00000	1678.89000
4.65707	0.00000	1654.68700
4.66089	0.00000	1654.68700
4.66471	0.00000	1654.68700
4.66853	0.00000	1678.89000
4.67235	0.00000	1678.89000
4.67617	0.00000	1678.89000
4.67998	0.00000	1678.89000
4.68381	0.00000	1666.66600
4.68763	0.00000	1666.66600
4.69145	0.00000	1666.66600
4.69527	0.00000	1661.93100
4.69909	0.00000	1661.93100
4.70292	0.00000	1661.93100
4.70674	0.00000	1661.93100
4.71055	0.00000	1661.93100
4.71438	0.00000	1661.93100
4.71820	0.00000	1661.93100
4.72202	0.00000	1661.93100
4.72584	0.00000	1661.93100
4.72966	0.00000	1661.93100
4.73348	0.00000	1661.93100
4.73732	0.00000	1661.93100
4.74114	0.00000	1661.93100
4.74495	0.00000	1661.93100
4.74877	0.00000	1654.68700
4.75259	0.00000	1654.68700
4.75642	0.00000	1654.68700
4.76024	0.00000	1674.10700
4.76407	0.00000	1674.10700
4.76789	0.00000	1674.10700
4.77170	0.00000	1674.10700
4.77553	0.00000	1671.40100
4.77935	0.00000	1671.40100
4.78317	0.00000	1671.40100
4.78699	0.00000	1661.93100
4.79081	0.00000	1661.93100
4.79464	0.00000	1661.93100
4.79846	0.00000	1657.19600
4.80226	0.00000	1657.19600
4.80608	0.00000	1657.19600
4.80990	0.00000	1657.19600
4.81372	0.00000	1666.66600
4.81754	0.00000	1666.66600
4.82136	0.00000	1666.66600
4.82518	0.00000	1661.93100
4.82900	0.00000	1661.93100
4.83283	0.00000	1661.93100
4.83665	0.00000	1661.93100
4.84047	0.00000	1654.68700
4.84429	0.00000	1654.68700
4.84811	0.00000	1654.68700
4.85193	0.00000	1678.89000
4.85576	0.00000	1678.89000
4.85958	0.00000	1678.89000
4.86340	0.00000	1678.89000
4.86722	0.00000	1666.66600
4.87104	0.00000	1666.66600
4.87486	0.00000	1666.66600
4.87868	0.00000	1661.93100
4.88250	0.00000	1661.93100
4.88633	0.00000	1661.93100
4.89015	0.00000	1661.93100
4.89397	0.00000	1661.93100
4.89779	0.00000	1661.93100
4.90161	0.00000	1661.93100
4.90543	0.00000	1671.40100
4.90925	0.00000	1671.40100
4.91307	0.00000	1671.40100
4.91689	0.00000	1678.89000
4.92071	0.00000	1678.89000
4.92453	0.00000	1678.89000
4.92836	0.00000	1678.89000
4.93218	0.00000	1654.68700
4.93600	0.00000	1654.68700
4.93982	0.00000	1654.68700
4.94364	0.00000	1674.10700
4.94746	0.00000	1674.10700
4.95128	0.00000	1674.10700
4.95510	0.00000	1678.89000
4.95892	0.00000	1678.89000
4.96274	0.00000	1678.89000
4.96656	0.00000	1678.89000
4.97038	0.00000	1657.19600
4.97421	0.00000	1657.19600
4.97803	0.00000	1657.19600
4.98187	0.00000	1661.93100
4.98574	0.00000	1661.93100
4.98957	0.00000	1661.93100
4.99339	0.00000	1661.93100
4.99723	0.00000	1676.13600
5.00154	0.00000	1676.13600
5.00540	0.00000	1676.13600
5.00924	0.00000	1678.89000
5.01307	0.00000	1678.89000
5.01692	0.00000	1678.89000
5.02075	0.00000	1856.43500
5.02458	0.00000	1856.43500
5.02841	0.00000	1856.43500
5.03228	0.00000	1856.43500
5.03613	0.00000	2343.75000
5.03997	0.00000	2343.75000
5.04381	0.00000	2343.75000
5.04764	0.00000	2343.75000
5.05147	0.00000	2735.05400
5.05530	0.00000	2735.05400
5.05914	0.00000	2735.05400
5.06298	0.00000	2735.05400
5.06682	0.00000	3116.03500
5.07067	0.00000	3116.03500
5.07451	0.00000	3116.03500
5.07834	0.00000	3116.03500
5.08217	0.00000	3116.03500
5.08600	0.00000	3481.63100
5.08983	0.00000	3481.63100
5.09366	0.00000	3481.63100
5.09748	0.00000	3481.63100
5.10132	0.00000	3481.63100
5.10516	0.00000	3839.76000
5.10898	0.00000	3839.76000
5.11281	0.00000	3839.76000
5.11664	0.00000	3839.76000
5.12048	0.00000	3839.76000
5.12432	0.00000	4153.12500
5.12816	0.00000	4153.12500
5.13200	0.00000	4153.12500
5.13583	0.00000	4153.12500
5.13966	0.00000	4153.12500
5.14349	0.00000	4403.86100
5.14733	0.00000	4403.86100
5.15117	0.00000	4403.86100
5.15500	0.00000	4403.86100
5.15883	0.00000	4403.86100
5.16267	0.00000	4403.86100
5.16651	0.00000	4587.46200
5.17034	0.00000	4587.46200
5.17417	0.00000	4587.46200
5.17804	0.00000	4587.46200
5.18192	0.00000	4587.46200
5.18576	0.00000	4715.40200
5.18959	0.00000	4715.40200
5.19343	0.00000	4715.40200
5.19726	0.00000	4715.40200
5.20110	0.00000	4715.40200
5.20494	0.00000	4715.40200
5.20878	0.00000	4807.41200
5.21261	0.00000	4807.41200
5.21645	0.00000	4807.41200
5.22028	0.00000	4807.41200
5.22411	0.00000	4807.41200
5.22795	0.00000	4807.41200
5.23178	0.00000	4877.67800
5.23561	0.00000	4877.67800
5.23944	0.00000	4877.67800
5.24328	0.00000	4877.67800
5.24710	0.00000	4877.67800
5.25093	0.00000	4877.67800
5.25476	0.00000	4907.30900
5.25860	0.00000	4907.30900
5.26243	0.00000	4907.30900
5.26626	0.00000	4907.30900
5.27009	0.00000	4907.30900
5.27392	0.00000	4907.30900
5.27775	0.00000	4923.18400
5.28159	0.00000	4923.18400
5.28542	0.00000	4923.18400
5.28925	0.00000	4923.18400
5.29309	0.00000	4923.18400
5.29692	0.00000	4923.18400
5.30075	0.00000	4955.72900
5.30457	0.00000	4955.72900
5.30840	0.00000	4955.72900
5.31224	0.00000	4955.72900
5.31607	0.00000	4955.72900
5.31991	0.00000	4955.72900
5.32374	0.00000	4955.72900
5.32756	0.00000	4969.78600
5.33140	0.00000	4969.78600
5.33522	0.00000	4969.78600
5.33907	0.00000	4969.78600
5.34291	0.00000	4969.78600
5.34674	0.00000	4969.78600
5.35057	0.00000	4993.09400
5.35440	0.00000	4993.09400
5.35823	0.00000	4993.09400
5.36205	0.00000	4993.09400
5.36589	0.00000	4993.09400
5.36972	0.00000	4993.09400
5.37357	0.00000	5011.22200
5.37741	0.00000	5011.22200
5.38126	0.00000	5011.22200
5.38510	0.00000	5011.22200
5.38893	0.00000	5011.22200
5.39276	0.00000	5011.22200
5.39659	0.00000	5026.76100
5.40043	0.00000	5026.76100
5.40427	0.00000	5026.76100
5.40810	0.00000	5026.76100
5.41194	0.00000	5026.76100
5.41577	0.00000	5026.76100
5.41960	0.00000	5012.01900
5.42344	0.00000	5012.01900
5.42727	0.00000	5012.01900
5.43110	0.00000	5012.01900
5.43494	0.00000	5012.01900
5.43877	0.00000	5012.01900
5.44261	0.00000	5017.17000
5.44643	0.00000	5017.17000
5.45026	0.00000	5017.17000
5.45410	0.00000	5017.17000
5.45795	0.00000	5017.17000
5.46179	0.00000	5017.17000
5.46562	0.00000	5017.17000
5.46944	0.00000	5024.89700
5.47328	0.00000	5024.89700
5.47712	0.00000	5024.89700
5.48096	0.00000	5024.89700
5.48479	0.00000	5024.89700
5.48862	0.00000	5024.89700
5.49244	0.00000	5022.32100
5.49627	0.00000	5022.32100
5.50010	0.00000	5022.32100
5.50395	0.00000	5022.32100
5.50778	0.00000	5022.32100
5.51161	0.00000	5022.32100
5.51544	0.00000	5027.47200
5.51927	0.00000	5027.47200
5.52310	0.00000	5027.47200
5.52694	0.00000	5027.47200
5.53078	0.00000	5027.47200
5.53461	0.00000	5027.47200
5.53845	0.00000	5024.89700
5.54226	0.00000	5024.89700
5.54609	0.00000	5024.89700
5.54992	0.00000	5024.89700
5.55375	0.00000	5024.89700
5.55759	0.00000	5024.89700
5.56142	0.00000	5027.47200
5.56526	0.00000	5027.47200
5.56909	0.00000	5027.47200
5.57292	0.00000	5027.47200
5.57676	0.00000	5027.47200
5.58060	0.00000	5027.47200
5.58443	0.00000	5027.47200
5.58827	0.00000	5037.77400
5.59210	0.00000	5037.77400
5.59593	0.00000	5037.77400
5.59975	0.00000	5037.77400
5.60359	0.00000	5037.77400
5.60742	0.00000	5037.77400
5.61125	0.00000	5024.89700
5.61508	0.00000	5024.89700
5.61892	0.00000	5024.89700
5.62275	0.00000	5024.89700
5.62658	0.00000	5024.89700
5.63041	0.00000	5024.89700
5.63425	0.00000	5030.04800
5.63809	0.00000	5030.04800
5.64192	0.00000	5030.04800
5.64576	0.00000	5030.04800
5.64960	0.00000	5030.04800
5.65342	0.00000	5030.04800
5.65726	0.00000	5030.04800
5.66110	0.00000	5030.04800
5.66493	0.00000	5030.04800
5.66877	0.00000	5030.04800
5.67260	0.00000	5030.04800
5.67643	0.00000	5030.04800
5.68025	0.00000	5027.47200
5.68408	0.00000	5027.47200
5.68791	0.00000	5027.47200
5.69175	0.00000	5027.47200
5.69558	0.00000	5027.47200
5.69939	0.00000	5027.47200
5.70322	0.00000	5027.47200
5.70704	0.00000	5015.36800
5.71088	0.00000	5015.36800
5.71471	0.00000	5015.36800
5.71855	0.00000	5015.36800
5.72238	0.00000	5015.36800
5.72621	0.00000	5015.36800
5.73006	0.00000	5024.89700
5.73390	0.00000	5024.89700
5.73773	0.00000	5024.89700
5.74157	0.00000	5024.89700
5.74540	0.00000	5024.89700
5.74922	0.00000	5024.89700
5.75305	0.00000	5027.47200
5.75690	0.00000	5027.47200
5.76074	0.00000	5027.47200
5.76458	0.00000	5027.47200
5.76841	0.00000	5027.47200
5.77225	0.00000	5027.47200
5.77608	0.00000	5027.47200
5.77991	0.00000	5027.47200
5.78375	0.00000	5027.47200
5.78758	0.00000	5027.47200
5.79142	0.00000	5027.47200
5.79525	0.00000	5027.47200
5.79908	0.00000	5027.47200
5.80291	0.00000	5027.47200
5.80675	0.00000	5027.47200
5.81058	0.00000	5027.47200
5.81441	0.00000	5027.47200
5.81824	0.00000	5027.47200
5.82208	0.00000	5027.47200
5.82591	0.00000	5015.36800
5.82974	0.00000	5015.36800
5.83359	0.00000	5015.36800
5.83743	0.00000	5015.36800
5.84126	0.00000	5015.36800
5.84510	0.00000	5015.36800
5.84893	0.00000	5024.89700
5.85276	0.00000	5024.89700
5.85658	0.00000	5024.89700
5.86042	0.00000	5024.89700
5.86426	0.00000	5024.89700
5.86809	0.00000	5024.89700
5.87192	0.00000	5022.32100
5.87575	0.00000	5022.32100
5.87957	0.00000	5022.32100
5.88341	0.00000	5022.32100
5.88724	0.00000	5022.32100
5.89107	0.00000	5022.32100
5.89491	0.00000	5027.47200
5.89874	0.00000	5027.47200
5.90257	0.00000	5027.47200
5.90640	0.00000	5027.47200
5.91023	0.00000	5027.47200
5.91408	0.00000	5027.47200
5.91791	0.00000	5030.04800
5.92177	0.00000	5030.04800
5.92560	0.00000	5030.04800
5.92942	0.00000	5030.04800
5.93325	0.00000	5030.04800
5.93709	0.00000	5030.04800
5.94093	0.00000	5030.04800
5.94479	0.00000	5040.35000
5.94863	0.00000	5040.35000
5.95246	0.00000	5040.35000
5.95629	0.00000	5040.35000
5.96013	0.00000	5040.35000
5.96396	0.00000	5040.35000
5.96780	0.00000	5030.04800
5.97165	0.00000	5030.04800
5.97547	0.00000	5030.04800
5.97931	0.00000	5030.04800
5.98327	0.00000	5030.04800
5.98714	0.00000	5030.04800
5.99098	0.00000	5022.32100
5.99481	0.00000	5022.32100
5.99864	0.00000	5022.32100
6.00246	0.00000	5022.32100
6.00626	0.00000	5022.32100
6.01010	0.00000	5022.32100
6.01393	0.00000	5050.06900
6.01776	0.00000	5050.06900
6.02159	0.00000	5050.06900
6.02541	0.00000	5050.06900
6.02924	0.00000	5050.06900
6.03307	0.00000	5050.06900
6.03690	0.00000	5027.47200
6.04076	0.00000	5027.47200
6.04460	0.00000	5027.47200
6.04842	0.00000	5027.47200
6.05225	0.00000	5027.47200
6.05608	0.00000	5027.47200
6.05992	0.00000	5027.47200
6.06376	0.00000	5027.47200
6.06759	0.00000	5027.47200
6.07143	0.00000	5027.47200
6.07527	0.00000	5027.47200
6.07910	0.00000	5027.47200
6.08294	0.00000	5027.47200
6.08678	0.00000	5037.77400
6.09061	0.00000	5037.77400
6.09445	0.00000	5037.77400
6.09826	0.00000	5037.77400
6.10211	0.00000	5037.77400
6.10594	0.00000	5037.77400
6.10977	0.00000	5050.06900
6.11360	0.00000	5050.06900
6.11743	0.00000	5050.06900
6.12128	0.00000	5050.06900
6.12511	0.00000	5050.06900
6.12894	0.00000	5050.06900
6.13277	0.00000	5027.47200
6.13662	0.00000	5027.47200
6.14046	0.00000	5027.47200
6.14429	0.00000	5027.47200
6.14812	0.00000	5027.47200
6.15194	0.00000	5027.47200
6.15577	0.00000	5027.47200
6.15960	0.00000	5027.47200
6.16344	0.00000	5027.47200
6.16728	0.00000	5027.47200
6.17111	0.00000	5027.47200
6.17494	0.00000	5027.47200
6.17877	0.00000	5027.47200
6.18262	0.00000	5027.47200
6.18645	0.00000	5027.47200
6.19026	0.00000	5027.47200
6.19410	0.00000	5027.47200
6.19792	0.00000	5027.47200
6.20175	0.00000	5027.47200
6.20558	0.00000	5012.80700
6.20941	0.00000	5012.80700
6.21324	0.00000	5012.80700
6.21708	0.00000	5012.80700
6.22091	0.00000	5012.80700
6.22475	0.00000	5012.80700
6.22857	0.00000	5027.47200
6.23240	0.00000	5027.47200
6.23625	0.00000	5027.47200
6.24009	0.00000	5027.47200
6.24395	0.00000	5027.47200
6.24780	0.00000	5027.47200
6.25164	0.00000	5024.89700
6.25547	0.00000	5024.89700
6.25932	0.00000	5024.89700
6.26315	0.00000	5024.89700
6.26698	0.00000	5024.89700
6.27081	0.00000	5024.89700
6.27465	0.00000	5000.00000
6.27849	0.00000	5000.00000
6.28234	0.00000	5000.00000
6.28617	0.00000	5000.00000
6.29001	0.00000	5000.00000
6.29384	0.00000	5000.00000
6.29767	0.00000	5030.04800
6.30151	0.00000	5030.04800
6.30535	0.00000	5030.04800
6.30918	0.00000	5030.04800
6.31301	0.00000	5030.04800
6.31684	0.00000	5030.04800
6.32067	0.00000	5030.04800
6.32450	0.00000	5020.49100
6.32833	0.00000	5020.49100
6.33215	0.00000	5020.49100
6.33598	0.00000	5020.49100
6.33981	0.00000	5020.49100
6.34364	0.00000	5020.49100
6.34748	0.00000	5032.62300
6.35131	0.00000	5032.62300
6.35515	0.00000	5032.62300
6.35899	0.00000	5032.62300
6.36282	0.00000	5032.62300
6.36667	0.00000	5032.62300
6.37051	0.00000	5027.47200
6.37434	0.00000	5027.47200
6.37816	0.00000	5027.47200
6.38199	0.00000	5027.47200
6.38583	0.00000	5027.47200
6.38966	0.00000	5027.47200
6.39350	0.00000	5032.62300
6.39734	0.00000	5032.62300
6.40118	0.00000	5032.62300
6.40502	0.00000	5032.62300
6.40885	0.00000	5032.62300
6.41269	0.00000	5032.62300
6.41652	0.00000	5030.04800
6.42037	0.00000	5030.04800
6.42419	0.00000	5030.04800
6.42802	0.00000	5030.04800
6.43186	0.00000	5030.04800
6.43568	0.00000	5030.04800
6.43952	0.00000	5030.04800
6.44335	0.00000	5025.61400
6.44718	0.00000	5025.61400
6.45101	0.00000	5025.61400
6.45484	0.00000	5025.61400
6.45866	0.00000	5025.61400
6.46250	0.00000	5025.61400
6.46633	0.00000	5002.56100
6.47017	0.00000	5002.56100
6.47400	0.00000	5002.56100
6.47783	0.00000	5002.56100
6.48167	0.00000	5002.56100
6.48550	0.00000	5002.56100
6.48932	0.00000	5032.62300
6.49315	0.00000	5032.62300
6.49700	0.00000	5032.62300
6.50082	0.00000	5032.62300
6.50466	0.00000	5032.62300
6.50849	0.00000	5032.62300
6.51233	0.00000	5030.04800
6.51616	0.00000	5030.04800
6.51999	0.00000	5030.04800
6.52382	0.00000	5030.04800
6.52765	0.00000	5030.04800
6.53149	0.00000	5030.04800
6.53532	0.00000	5032.62300
6.53918	0.00000	5032.62300
6.54301	0.00000	5032.62300
6.54685	0.00000	5032.62300
6.55068	0.00000	5032.62300
6.55451	0.00000	5032.62300
6.55834	0.00000	5032.62300
6.56218	0.00000	5015.36800
6.56601	0.00000	5015.36800
6.56984	0.00000	5015.36800
6.57368	0.00000	5015.36800
6.57751	0.00000	5015.36800
6.58134	0.00000	5015.36800
6.58517	0.00000	5027.47200
6.58900	0.00000	5027.47200
6.59283	0.00000	5027.47200
6.59668	0.00000	5027.47200
6.60052	0.00000	5027.47200
6.60436	0.00000	5027.47200
6.60820	0.00000	5027.47200
6.61203	0.00000	5027.47200
6.61587	0.00000	5027.47200
6.61970	0.00000	5027.47200
6.62353	0.00000	5027.47200
6.62736	0.00000	5027.47200
6.63119	0.00000	5027.47200
6.63501	0.00000	5027.47200
6.63885	0.00000	5027.47200
6.64268	0.00000	5027.47200
6.64651	0.00000	5027.47200
6.65035	0.00000	5027.47200
6.65417	0.00000	5032.62300
6.65800	0.00000	5032.62300
6.66183	0.00000	5032.62300
6.66567	0.00000	5032.62300
6.66950	0.00000	5032.62300
6.67333	0.00000	5032.62300
6.67716	0.00000	5032.62300
6.68098	0.00000	5045.50100
6.68481	0.00000	5045.50100
6.68864	0.00000	5045.50100
6.69248	0.00000	5045.50100
6.69631	0.00000	5045.50100
6.70015	0.00000	5045.50100
6.70398	0.00000	5030.04800
6.70780	0.00000	5030.04800
6.71164	0.00000	5030.04800
6.71547	0.00000	5030.04800
6.71932	0.00000	5030.04800
6.72315	0.00000	5030.04800
6.72698	0.00000	5027.47200
6.73081	0.00000	5027.47200
6.73464	0.00000	5027.47200
6.73848	0.00000	5027.47200
6.74232	0.00000	5027.47200
6.74615	0.00000	5027.47200
6.74998	0.00000	5030.04800
6.75381	0.00000	5030.04800
6.75764	0.00000	5030.04800
6.76147	0.00000	5030.04800
6.76532	0.00000	5030.04800
6.76915	0.00000	5030.04800
6.77298	0.00000	5037.77400
6.77682	0.00000	5037.77400
6.78066	0.00000	5037.77400
6.78450	0.00000	5037.77400
6.78833	0.00000	5037.77400
6.79216	0.00000	5037.77400
6.79599	0.00000	5037.77400
6.79982	0.00000	5042.92600
6.80365	0.00000	5042.92600
6.80748	0.00000	5042.92600
6.81131	0.00000	5042.92600
6.81515	0.00000	5042.92600
6.81898	0.00000	5042.92600
6.82281	0.00000	5035.19900
6.82665	0.00000	5035.19900
6.83048	0.00000	5035.19900
6.83432	0.00000	5035.19900
6.83815	0.00000	5035.19900
6.84198	0.00000	5035.19900
6.84583	0.00000	5035.19900
6.84970	0.00000	5035.19900
6.85353	0.00000	5035.19900
6.85737	0.00000	5035.19900
6.86120	0.00000	5035.19900
6.86506	0.00000	5035.19900
6.86889	0.00000	5030.04800
6.87273	0.00000	5030.04800
6.87656	0.00000	5030.04800
6.88040	0.00000	5030.04800
6.88423	0.00000	5030.04800
6.88807	0.00000	5030.04800
6.89190	0.00000	5032.62300
6.89577	0.00000	5032.62300
6.89960	0.00000	5032.62300
6.90343	0.00000	5032.62300
6.90727	0.00000	5032.62300
6.91111	0.00000	5032.62300
6.91495	0.00000	5030.04800
6.91877	0.00000	5030.04800
6.92259	0.00000	5030.04800
6.92642	0.00000	5030.04800
6.93026	0.00000	5030.04800
6.93410	0.00000	5030.04800
6.93793	0.00000	5030.04800
6.94176	0.00000	5010.24500
6.94560	0.00000	5010.24500
6.94943	0.00000	5010.24500
6.95325	0.00000	5010.24500
6.95708	0.00000	5010.24500
6.96091	0.00000	5010.24500
6.96475	0.00000	5030.04800
6.96858	0.00000	5030.04800
6.97241	0.00000	5030.04800
6.97623	0.00000	5030.04800
6.98006	0.00000	5030.04800
6.98391	0.00000	5030.04800
6.98778	0.00000	5055.24800
6.99162	0.00000	5055.24800
6.99546	0.00000	5055.24800
6.99928	0.00000	5055.24800
7.00311	0.00000	5055.24800
7.00695	0.00000	5055.24800
7.01079	0.00000	5035.19900
7.01462	0.00000	5035.19900
7.01846	0.00000	5035.19900
7.02226	0.00000	5035.19900
7.02609	0.00000	5035.19900
7.02992	0.00000	5035.19900
7.03375	0.00000	5010.24500
7.03757	0.00000	5010.24500
7.04141	0.00000	5010.24500
7.04524	0.00000	5010.24500
7.04906	0.00000	5010.24500
7.05289	0.00000	5010.24500
7.05672	0.00000	5010.24500
7.06055	0.00000	5017.93000
7.06438	0.00000	5017.93000
7.06822	0.00000	5017.93000
7.07205	0.00000	5017.93000
7.07590	0.00000	5017.93000
7.07972	0.00000	5017.93000
7.08356	0.00000	5037.77400
7.08739	0.00000	5037.77400
7.09122	0.00000	5037.77400
7.09506	0.00000	5037.77400
7.09890	0.00000	5037.77400
7.10272	0.00000	5037.77400
7.10655	0.00000	5037.77400
7.11039	0.00000	5037.77400
7.11422	0.00000	5037.77400
7.11806	0.00000	5037.77400
7.12189	0.00000	5037.77400
7.12572	0.00000	5037.77400
7.12955	0.00000	5040.35000
7.13339	0.00000	5040.35000
7.13722	0.00000	5040.35000
7.14105	0.00000	5040.35000
7.14488	0.00000	5040.35000
7.14872	0.00000	5040.35000
7.15254	0.00000	5037.77400
7.15637	0.00000	5037.77400
7.16020	0.00000	5037.77400
7.16403	0.00000	5037.77400
7.16786	0.00000	5037.77400
7.17169	0.00000	5037.77400
7.17552	0.00000	5037.77400
7.17936	0.00000	5048.07700
7.18320	0.00000	5048.07700
7.18704	0.00000	5048.07700
7.19087	0.00000	5048.07700
7.19470	0.00000	5048.07700
7.19853	0.00000	5048.07700
7.20235	0.00000	5037.77400
7.20618	0.00000	5037.77400
7.21000	0.00000	5037.77400
7.21384	0.00000	5037.77400
7.21768	0.00000	5037.77400
7.22151	0.00000	5037.77400
7.22534	0.00000	5037.77400
7.22916	0.00000	5037.77400
7.23300	0.00000	5037.77400
7.23683	0.00000	5037.77400
7.24066	0.00000	5037.77400
7.24449	0.00000	5037.77400
7.24832	0.00000	5037.77400
7.25216	0.00000	5037.77400
7.25598	0.00000	5037.77400
7.25981	0.00000	5037.77400
7.26364	0.00000	5037.77400
7.26749	0.00000	5037.77400
7.27131	0.00000	5017.93000
7.27514	0.00000	5017.93000
7.27896	0.00000	5017.93000
7.28279	0.00000	5017.93000
7.28662	0.00000	5017.93000
7.29046	0.00000	5017.93000
7.29426	0.00000	5017.93000
7.29809	0.00000	5012.80700
7.30193	0.00000	5012.80700
7.30576	0.00000	5012.80700
7.30960	0.00000	5012.80700
7.31343	0.00000	5012.80700
7.31728	0.00000	5012.80700
7.32111	0.00000	5040.35000
7.32494	0.00000	5040.35000
7.32877	0.00000	5040.35000
7.33261	0.00000	5040.35000
7.33645	0.00000	5040.35000
7.34027	0.00000	5040.35000
7.34410	0.00000	5042.92600
7.34794	0.00000	5042.92600
7.35177	0.00000	5042.92600
7.35559	0.00000	5042.92600
7.35939	0.00000	5042.92600
7.36322	0.00000	5042.92600
7.36705	0.00000	5040.35000
7.37088	0.00000	5040.35000
7.37473	0.00000	5040.35000
7.37856	0.00000	5040.35000
7.38239	0.00000	5040.35000
7.38623	0.00000	5040.35000
7.39008	0.00000	5040.35000
7.39391	0.00000	5025.61400
7.39773	0.00000	5025.61400
7.40155	0.00000	5025.61400
7.40538	0.00000	5025.61400
7.40922	0.00000	5025.61400
7.41305	0.00000	5025.61400
7.41688	0.00000	5037.77400
7.42071	0.00000	5037.77400
7.42454	0.00000	5037.77400
7.42837	0.00000	5037.77400
7.43220	0.00000	5037.77400
7.43603	0.00000	5037.77400
7.43986	0.00000	5035.19900
7.44369	0.00000	5035.19900
7.44752	0.00000	5035.19900
7.45135	0.00000	5035.19900
7.45519	0.00000	5035.19900
7.45902	0.00000	5035.19900
7.46285	0.00000	5012.80700
7.46669	0.00000	5012.80700
7.47052	0.00000	5012.80700
7.47437	0.00000	5012.80700
7.47820	0.00000	5012.80700
7.48202	0.00000	5012.80700
7.48585	0.00000	5042.92600
7.48970	0.00000	5042.92600
7.49352	0.00000	5042.92600
7.49735	0.00000	5042.92600
7.50117	0.00000	5042.92600
7.50500	0.00000	5042.92600
7.50883	0.00000	5042.92600
7.51266	0.00000	5030.73800
7.51649	0.00000	5030.73800
7.52032	0.00000	5030.73800
7.52414	0.00000	5030.73800
7.52797	0.00000	5030.73800
7.53180	0.00000	5030.73800
7.53563	0.00000	5037.77400
7.53947	0.00000	5037.77400
7.54331	0.00000	5037.77400
7.54713	0.00000	5037.77400
7.55096	0.00000	5037.77400
7.55479	0.00000	5037.77400
7.55863	0.00000	5042.92600
7.56246	0.00000	5042.92600
7.56626	0.00000	5042.92600
7.57009	0.00000	5042.92600
7.57392	0.00000	5042.92600
7.57775	0.00000	5042.92600
7.58158	0.00000	5045.50100
7.58542	0.00000	5045.50100
7.58925	0.00000	5045.50100
7.59309	0.00000	5045.50100
7.59692	0.00000	5045.50100
7.60074	0.00000	5045.50100
7.60457	0.00000	5048.07700
7.60839	0.00000	5048.07700
7.61222	0.00000	5048.07700
7.61605	0.00000	5048.07700
7.61987	0.00000	5048.07700
7.62371	0.00000	5048.07700
7.62754	0.00000	5048.07700
7.63136	0.00000	5035.86100
7.63520	0.00000	5035.86100
7.63904	0.00000	5035.86100
7.64287	0.00000	5035.86100
7.64670	0.00000	5035.86100
7.65052	0.00000	5035.86100
7.65436	0.00000	5042.92600
7.65820	0.00000	5042.92600
7.66201	0.00000	5042.92600
7.66586	0.00000	5042.92600
7.66969	0.00000	5042.92600
7.67352	0.00000	5042.92600
7.67735	0.00000	5048.07700
7.68118	0.00000	5048.07700
7.68502	0.00000	5048.07700
7.68885	0.00000	5048.07700
7.69268	0.00000	5048.07700
7.69651	0.00000	5048.07700
7.70034	0.00000	5045.50100
7.70417	0.00000	5045.50100
7.70801	0.00000	5045.50100
7.71184	0.00000	5045.50100
7.71566	0.00000	5045.50100
7.71950	0.00000	5045.50100
7.72333	0.00000	5017.93000
7.72717	0.00000	5017.93000
7.73100	0.00000	5017.93000
7.73484	0.00000	5017.93000
7.73867	0.00000	5017.93000
7.74250	0.00000	5017.93000
7.74633	0.00000	5017.93000
7.75017	0.00000	5030.73800
7.75399	0.00000	5030.73800
7.75782	0.00000	5030.73800
7.76165	0.00000	5030.73800
7.76548	0.00000	5030.73800
7.76932	0.00000	5030.73800
7.77314	0.00000	5025.61400
7.77699	0.00000	5025.61400
7.78082	0.00000	5025.61400
7.78466	0.00000	5025.61400
7.78848	0.00000	5025.61400
7.79232	0.00000	5025.61400
7.79615	0.00000	5023.05300
7.79998	0.00000	5023.05300
7.80381	0.00000	5023.05300
7.80764	0.00000	5023.05300
7.81147	0.00000	5023.05300
7.81531	0.00000	5023.05300
7.81917	0.00000	5023.05300
7.82302	0.00000	5023.05300
7.82685	0.00000	5023.05300
7.83069	0.00000	5023.05300
7.83453	0.00000	5023.05300
7.83836	0.00000	5023.05300
7.84219	0.00000	5050.65200
7.84601	0.00000	5050.65200
7.84986	0.00000	5050.65200
7.85369	0.00000	5050.65200
7.85752	0.00000	5050.65200
7.86136	0.00000	5050.65200
7.86520	0.00000	5050.65200
7.86903	0.00000	5025.61400
7.87286	0.00000	5025.61400
7.87669	0.00000	5025.61400
7.88053	0.00000	5025.61400
7.88436	0.00000	5025.61400
7.88819	0.00000	5025.61400
7.89202	0.00000	5025.61400
7.89585	0.00000	5025.61400
7.89968	0.00000	5025.61400
7.90352	0.00000	5025.61400
7.90736	0.00000	5025.61400
7.91118	0.00000	5025.61400
7.91501	0.00000	5053.22800
7.91884	0.00000	5053.22800
7.92268	0.00000	5053.22800
7.92651	0.00000	5053.22800
7.93034	0.00000	5053.22800
7.93418	0.00000	5053.22800
7.93802	0.00000	5050.65200
7.94187	0.00000	5050.65200
7.94570	0.00000	5050.65200
7.94953	0.00000	5050.65200
7.95336	0.00000	5050.65200
7.95719	0.00000	5050.65200
7.96103	0.00000	5050.65200
7.96488	0.00000	5033.29900
7.96871	0.00000	5033.29900
7.97254	0.00000	5033.29900
7.97637	0.00000	5033.29900
7.98020	0.00000	5033.29900
7.98405	0.00000	5033.29900
7.98792	0.00000	5045.50100
7.99177	0.00000	5045.50100
7.99562	0.00000	5045.50100
7.99945	0.00000	5045.50100
8.00328	0.00000	5045.50100
8.00711	0.00000	5045.50100
8.01094	0.00000	5050.65200
8.01477	0.00000	5050.65200
8.01860	0.00000	5050.65200
8.02243	0.00000	5050.65200
8.02626	0.00000	5050.65200
8.03009	0.00000	5050.65200
8.03392	0.00000	5045.50100
8.03776	0.00000	5045.50100
8.04160	0.00000	5045.50100
8.04543	0.00000	5045.50100
8.04926	0.00000	5045.50100
8.05309	0.00000	5045.50100
8.05692	0.00000	5020.49100
8.06076	0.00000	5020.49100
8.06459	0.00000	5020.49100
8.06843	0.00000	5020.49100
8.07227	0.00000	5020.49100
8.07611	0.00000	5020.49100
8.07994	0.00000	5020.49100
8.08378	0.00000	5038.42200
8.08762	0.00000	5038.42200
8.09145	0.00000	5038.42200
8.09529	0.00000	5038.42200
8.09912	0.00000	5038.42200
8.10295	0.00000	5038.42200
8.10678	0.00000	5045.50100
8.11062	0.00000	5045.50100
8.11445	0.00000	5045.50100
8.11826	0.00000	5045.50100
8.12210	0.00000	5045.50100
8.12592	0.00000	5045.50100
8.12977	0.00000	5017.93000
8.13361	0.00000	5017.93000
8.13744	0.00000	5017.93000
8.14127	0.00000	5017.93000
8.14511	0.00000	5017.93000
8.14895	0.00000	5017.93000
8.15278	0.00000	5048.07700
8.15662	0.00000	5048.07700
8.16046	0.00000	5048.07700
8.16429	0.00000	5048.07700
8.16812	0.00000	5048.07700
8.17196	0.00000	5048.07700
8.17579	0.00000	5048.07700
8.17964	0.00000	5048.07700
8.18348	0.00000	5048.07700
8.18732	0.00000	5048.07700
8.19114	0.00000	5048.07700
8.19497	0.00000	5048.07700
8.19880	0.00000	5048.07700
8.20263	0.00000	5043.54500
8.20647	0.00000	5043.54500
8.21026	0.00000	5043.54500
8.21409	0.00000	5043.54500
8.21793	0.00000	5043.54500
8.22176	0.00000	5043.54500
8.22560	0.00000	5020.49100
8.22944	0.00000	5020.49100
8.23327	0.00000	5020.49100
8.23710	0.00000	5020.49100
8.24093	0.00000	5020.49100
8.24477	0.00000	5020.49100
8.24860	0.00000	5048.07700
8.25243	0.00000	5048.07700
8.25626	0.00000	5048.07700
8.26009	0.00000	5048.07700
8.26393	0.00000	5048.07700
8.26777	0.00000	5048.07700
8.27160	0.00000	5048.07700
8.27544	0.00000	5048.07700
8.27929	0.00000	5048.07700
8.28312	0.00000	5048.07700
8.28696	0.00000	5048.07700
8.29080	0.00000	5048.07700
8.29465	0.00000	5025.61400
8.29848	0.00000	5025.61400
8.30231	0.00000	5025.61400
8.30615	0.00000	5025.61400
8.30999	0.00000	5025.61400
8.31382	0.00000	5025.61400
8.31765	0.00000	5025.61400
8.32148	0.00000	5040.98300
8.32532	0.00000	5040.98300
8.32916	0.00000	5040.98300
8.33300	0.00000	5040.98300
8.33683	0.00000	5040.98300
8.34067	0.00000	5040.98300
8.34450	0.00000	5053.22800
8.34833	0.00000	5053.22800
8.35217	0.00000	5053.22800
8.35601	0.00000	5053.22800
8.35984	0.00000	5053.22800
8.36367	0.00000	5053.22800
8.36750	0.00000	5048.07700
8.37135	0.00000	5048.07700
8.37518	0.00000	5048.07700
8.37901	0.00000	5048.07700
8.38284	0.00000	5048.07700
8.38668	0.00000	5048.07700
8.39050	0.00000	5053.22800
8.39435	0.00000	5053.22800
8.39819	0.00000	5053.22800
8.40203	0.00000	5053.22800
8.40587	0.00000	5053.22800
8.40971	0.00000	5053.22800
8.41354	0.00000	5023.05300
8.41736	0.00000	5023.05300
8.42119	0.00000	5023.05300
8.42502	0.00000	5023.05300
8.42885	0.00000	5023.05300
8.43268	0.00000	5023.05300
8.43651	0.00000	5023.05300
8.44034	0.00000	5058.37900
8.44418	0.00000	5058.37900
8.44801	0.00000	5058.37900
8.45184	0.00000	5058.37900
8.45567	0.00000	5058.37900
8.45951	0.00000	5058.37900
8.46334	0.00000	5050.65200
8.46717	0.00000	5050.65200
8.47100	0.00000	5050.65200
8.47483	0.00000	5050.65200
8.47867	0.00000	5050.65200
8.48250	0.00000	5050.65200
8.48633	0.00000	5025.61400
8.49016	0.00000	5025.61400
8.49400	0.00000	5025.61400
8.49783	0.00000	5025.61400
8.50165	0.00000	5025.61400
8.50549	0.00000	5025.61400
8.50932	0.00000	5023.05300
8.51317	0.00000	5023.05300
8.51700	0.00000	5023.05300
8.52083	0.00000	5023.05300
8.52466	0.00000	5023.05300
8.52849	0.00000	5023.05300
8.53233	0.00000	5023.05300
8.53616	0.00000	5038.42200
8.53999	0.00000	5038.42200
8.54383	0.00000	5038.42200
8.54768	0.00000	5038.42200
8.55151	0.00000	5038.42200
8.55535	0.00000	5038.42200
8.55918	0.00000	5048.07700
8.56302	0.00000	5048.07700
8.56685	0.00000	5048.07700
8.57068	0.00000	5048.07700
8.57451	0.00000	5048.07700
8.57834	0.00000	5048.07700
8.58216	0.00000	5023.05300
8.58601	0.00000	5023.05300
8.58985	0.00000	5023.05300
8.59369	0.00000	5023.05300
8.59752	0.00000	5023.05300
8.60136	0.00000	5023.05300
8.60520	0.00000	5023.05300
8.60903	0.00000	5023.05300
8.61287	0.00000	5023.05300
8.61670	0.00000	5023.05300
8.62053	0.00000	5023.05300
8.62435	0.00000	5023.05300
8.62818	0.00000	5042.92600
8.63202	0.00000	5042.92600
8.63586	0.00000	5042.92600
8.63970	0.00000	5042.92600
8.64352	0.00000	5042.92600
8.64736	0.00000	5042.92600
8.65119	0.00000	5042.92600
8.65502	0.00000	5043.54500
8.65885	0.00000	5043.54500
8.66269	0.00000	5043.54500
8.66652	0.00000	5043.54500
8.67034	0.00000	5043.54500
8.67417	0.00000	5043.54500
8.67800	0.00000	5025.61400
8.68184	0.00000	5025.61400
8.68568	0.00000	5025.61400
8.68953	0.00000	5025.61400
8.69336	0.00000	5025.61400
8.69719	0.00000	5025.61400
8.70103	0.00000	5023.05300
8.70488	0.00000	5023.05300
8.70871	0.00000	5023.05300
8.71256	0.00000	5023.05300
8.71639	0.00000	5023.05300
8.72022	0.00000	5023.05300
8.72406	0.00000	5048.07700
8.72789	0.00000	5048.07700
8.73173	0.00000	5048.07700
8.73557	0.00000	5048.07700
8.73939	0.00000	5048.07700
8.74323	0.00000	5048.07700
8.74707	0.00000	5048.07700
8.75092	0.00000	5048.07700
8.75475	0.00000	5048.07700
8.75858	0.00000	5048.07700
8.76241	0.00000	5048.07700
8.76625	0.00000	5048.07700
8.77008	0.00000	5048.07700
8.77392	0.00000	5038.42200
8.77775	0.00000	5038.42200
8.78160	0.00000	5038.42200
8.78543	0.00000	5038.42200
8.78927	0.00000	5038.42200
8.79310	0.00000	5038.42200
8.79693	0.00000	5023.05300
8.80076	0.00000	5023.05300
8.80460	0.00000	5023.05300
8.80843	0.00000	5023.05300
8.81226	0.00000	5023.05300
8.81609	0.00000	5023.05300
8.81993	0.00000	5048.07700
8.82376	0.00000	5048.07700
8.82759	0.00000	5048.07700
8.83142	0.00000	5048.07700
8.83525	0.00000	5048.07700
8.83908	0.00000	5048.07700
8.84291	0.00000	5050.65200
8.84674	0.00000	5050.65200
8.85057	0.00000	5050.65200
8.85441	0.00000	5050.65200
8.85824	0.00000	5050.65200
8.86208	0.00000	5050.65200
8.86591	0.00000	5050.65200
8.86973	0.00000	5050.65200
8.87357	0.00000	5050.65200
8.87739	0.00000	5050.65200
8.88123	0.00000	5050.65200
8.88506	0.00000	5050.65200
8.88888	0.00000	5050.65200
8.89271	0.00000	5058.37900
8.89655	0.00000	5058.37900
8.90039	0.00000	5058.37900
8.90422	0.00000	5058.37900
8.90806	0.00000	5058.37900
8.91190	0.00000	5058.37900
8.91574	0.00000	5048.07700
8.91958	0.00000	5048.07700
8.92342	0.00000	5048.07700
8.92726	0.00000	5048.07700
8.93109	0.00000	5048.07700
8.93492	0.00000	5048.07700
8.93875	0.00000	5053.22800
8.94259	0.00000	5053.22800
8.94646	0.00000	5053.22800
8.95032	0.00000	5053.22800
8.95416	0.00000	5053.22800
8.95801	0.00000	5053.22800
8.96184	0.00000	5025.61400
8.96570	0.00000	5025.61400
8.96953	0.00000	5025.61400
8.97337	0.00000	5025.61400
8.97720	0.00000	5025.61400
8.98104	0.00000	5025.61400
8.98492	0.00000	5023.05300
8.98876	0.00000	5023.05300
8.99259	0.00000	5023.05300
8.99643	0.00000	5023.05300
9.00025	0.00000	5023.05300
9.00409	0.00000	5023.05300
9.00793	0.00000	5023.05300
9.01176	0.00000	5030.73800
9.01560	0.00000	5030.73800
9.01939	0.00000	5030.73800
9.02323	0.00000	5030.73800
9.02707	0.00000	5030.73800
9.03090	0.00000	5030.73800
9.03474	0.00000	5050.65200
9.03858	0.00000	5050.65200
9.04242	0.00000	5050.65200
9.04626	0.00000	5050.65200
9.05010	0.00000	5050.65200
9.05394	0.00000	5050.65200
9.05777	0.00000	5023.05300
9.06160	0.00000	5023.05300
9.06544	0.00000	5023.05300
9.06928	0.00000	5023.05300
9.07310	0.00000	5023.05300
9.07693	0.00000	5023.05300
9.08077	0.00000	5023.05300
9.08461	0.00000	5023.05300
9.08846	0.00000	5023.05300
9.09229	0.00000	5023.05300
9.09611	0.00000	5023.05300
9.09995	0.00000	5023.05300
9.10378	0.00000	5053.22800
9.10761	0.00000	5053.22800
9.11145	0.00000	5053.22800
9.11529	0.00000	5053.22800
9.11912	0.00000	5053.22800
9.12295	0.00000	5053.22800
9.12679	0.00000	5053.22800
9.13063	0.00000	5023.05300
9.13448	0.00000	5023.05300
9.13832	0.00000	5023.05300
9.14215	0.00000	5023.05300
9.14599	0.00000	5023.05300
9.14983	0.00000	5023.05300
9.15367	0.00000	5023.05300
9.15751	0.00000	5023.05300
9.16134	0.00000	5023.05300
9.16517	0.00000	5023.05300
9.16900	0.00000	5023.05300
9.17283	0.00000	5023.05300
9.17666	0.00000	5050.65200
9.18050	0.00000	5050.65200
9.18434	0.00000	5050.65200
9.18817	0.00000	5050.65200
9.19200	0.00000	5050.65200
9.19584	0.00000	5050.65200
9.19968	0.00000	5053.22800
9.20351	0.00000	5053.22800
9.20734	0.00000	5053.22800
9.21119	0.00000	5053.22800
9.21502	0.00000	5053.22800
9.21886	0.00000	5053.22800
9.22269	0.00000	5053.22800
9.22653	0.00000	5058.37900
9.23036	0.00000	5058.37900
9.23419	0.00000	5058.37900
9.23802	0.00000	5058.37900
9.24185	0.00000	5058.37900
9.24570	0.00000	5058.37900
9.24953	0.00000	5045.50100
9.25336	0.00000	5045.50100
9.25719	0.00000	5045.50100
9.26102	0.00000	5045.50100
9.26486	0.00000	5045.50100
9.26869	0.00000	5045.50100
9.27252	0.00000	5050.65200
9.27636	0.00000	5050.65200
9.28020	0.00000	5050.65200
9.28403	0.00000	5050.65200
9.28787	0.00000	5050.65200
9.29171	0.00000	5050.65200
9.29554	0.00000	5048.07700
9.29937	0.00000	5048.07700
9.30321	0.00000	5048.07700
9.30705	0.00000	5048.07700
9.31088	0.00000	5048.07700
9.31471	0.00000	5048.07700
9.31855	0.00000	5020.49100
9.32241	0.00000	5020.49100
9.32625	0.00000	5020.49100
9.33009	0.00000	5020.49100
9.33392	0.00000	5020.49100
9.33775	0.00000	5020.49100
9.34158	0.00000	5020.49100
9.34540	0.00000	5035.86100
9.34923	0.00000	5035.86100
9.35306	0.00000	5035.86100
9.35690	0.00000	5035.86100
9.36072	0.00000	5035.86100
9.36455	0.00000	5035.86100
9.36838	0.00000	5053.22800
9.37222	0.00000	5053.22800
9.37607	0.00000	5053.22800
9.37990	0.00000	5053.22800
9.38374	0.00000	5053.22800
9.38758	0.00000	5053.22800
9.39143	0.00000	5020.49100
9.39526	0.00000	5020.49100
9.39909	0.00000	5020.49100
9.40292	0.00000	5020.49100
9.40675	0.00000	5020.49100
9.41059	0.00000	5020.49100
9.41443	0.00000	5045.50100
9.41826	0.00000	5045.50100
9.42209	0.00000	5045.50100
9.42593	0.00000	5045.50100
9.42977	0.00000	5045.50100
9.43361	0.00000	5045.50100
9.43744	0.00000	5053.22800
9.44130	0.00000	5053.22800
9.44513	0.00000	5053.22800
9.44895	0.00000	5053.22800
9.45279	0.00000	5053.22800
9.45662	0.00000	5053.22800
9.46046	0.00000	5053.22800
9.46430	0.00000	5048.66800
9.46813	0.00000	5048.66800
9.47196	0.00000	5048.66800
9.47579	0.00000	5048.66800
9.47966	0.00000	5048.66800
9.48351	0.00000	5048.66800
9.48733	0.00000	5050.65200
9.49117	0.00000	5050.65200
9.49504	0.00000	5050.65200
9.49888	0.00000	5050.65200
9.50272	0.00000	5050.65200
9.50655	0.00000	5050.65200
9.51039	0.00000	5015.36800
9.51425	0.00000	5015.36800
9.51810	0.00000	5015.36800
9.52194	0.00000	5015.36800
9.52578	0.00000	5015.36800
9.52964	0.00000	5015.36800
9.53349	0.00000	5025.61400
9.53733	0.00000	5025.61400
9.54117	0.00000	5025.61400
9.54504	0.00000	5025.61400
9.54888	0.00000	5025.61400
9.55271	0.00000	5025.61400
9.55654	0.00000	5053.22800
9.56041	0.00000	5053.22800
9.56427	0.00000	5053.22800
9.56812	0.00000	5053.22800
9.57197	0.00000	5053.22800
9.57580	0.00000	5053.22800
9.57966	0.00000	5053.22800
9.58350	0.00000	5035.86100
9.58733	0.00000	5035.86100
9.59118	0.00000	5035.86100
9.59504	0.00000	5035.86100
9.59889	0.00000	5035.86100
9.60272	0.00000	5035.86100
9.60655	0.00000	5017.93000
9.61038	0.00000	5017.93000
9.61425	0.00000	5017.93000
9.61810	0.00000	5017.93000
9.62193	0.00000	5017.93000
9.62577	0.00000	5017.93000
9.62964	0.00000	5048.07700
9.63348	0.00000	5048.07700
9.63732	0.00000	5048.07700
9.64116	0.00000	5048.07700
9.64502	0.00000	5048.07700
9.64887	0.00000	5048.07700
9.65271	0.00000	5053.22800
9.65655	0.00000	5053.22800
9.66039	0.00000	5053.22800
9.66425	0.00000	5053.22800
9.66808	0.00000	5053.22800
9.67193	0.00000	5053.22800
9.67577	0.00000	5050.65200
9.67963	0.00000	5050.65200
9.68347	0.00000	5050.65200
9.68731	0.00000	5050.65200
9.69116	0.00000	5050.65200
9.69502	0.00000	5050.65200
9.69886	0.00000	5017.93000
9.70268	0.00000	5017.93000
9.70654	0.00000	5017.93000
9.71037	0.00000	5017.93000
9.71422	0.00000	5017.93000
9.71807	0.00000	5017.93000
9.72191	0.00000	5017.93000
9.72576	0.00000	5025.61400
9.72961	0.00000	5025.61400
9.73345	0.00000	5025.61400
9.73730	0.00000	5025.61400
9.74114	0.00000	5025.61400
9.74500	0.00000	5025.61400
9.74884	0.00000	5020.49100
9.75267	0.00000	5020.49100
9.75652	0.00000	5020.49100
9.76036	0.00000	5020.49100
9.76422	0.00000	5020.49100
9.76807	0.00000	5020.49100
9.77191	0.00000	5023.05300
9.77576	0.00000	5023.05300
9.77962	0.00000	5023.05300
9.78346	0.00000	5023.05300
9.78730	0.00000	5023.05300
9.79116	0.00000	5023.05300
9.79501	0.00000	5053.22800
9.79885	0.00000	5053.22800
9.80270	0.00000	5053.22800
9.80656	0.00000	5053.22800
9.81040	0.00000	5053.22800
9.81426	0.00000	5053.22800
9.81810	0.00000	5048.07700
9.82193	0.00000	5048.07700
9.82578	0.00000	5048.07700
9.82964	0.00000	5048.07700
9.83348	0.00000	5048.07700
9.83731	0.00000	5048.07700
9.84114	0.00000	5048.07700
9.84500	0.00000	5035.86100
9.84884	0.00000	5035.86100
9.85268	0.00000	5035.86100
9.85651	0.00000	5035.86100
9.86035	0.00000	5035.86100
9.86420	0.00000	5035.86100
9.86805	0.00000	5023.05300
9.87190	0.00000	5023.05300
9.87574	0.00000	5023.05300
9.87960	0.00000	5023.05300
9.88345	0.00000	5023.05300
9.88728	0.00000	5023.05300
9.89113	0.00000	5053.22800
9.89499	0.00000	5053.22800
9.89884	0.00000	5053.22800
9.90267	0.00000	5053.22800
9.90652	0.00000	5053.22800
9.91036	0.00000	5053.22800
9.91423	0.00000	5048.07700
9.91808	0.00000	5048.07700
9.92192	0.00000	5048.07700
9.92575	0.00000	5048.07700
9.92961	0.00000	5048.07700
9.93345	0.00000	5048.07700
9.93728	0.00000	5048.07700
9.94116	0.00000	5048.07700
9.94503	0.00000	5048.07700
9.94887	0.00000	5048.07700
9.95271	0.00000	5048.07700
9.95654	0.00000	5048.07700
9.96038	0.00000	5048.07700
9.96424	0.00000	5038.42200
9.96808	0.00000	5038.42200
9.97192	0.00000	5038.42200
9.97577	0.00000	5038.42200
9.97963	0.00000	5038.42200
9.98348	0.00000	5038.42200
9.98736	0.00000	5055.80300
9.99121	0.00000	5055.80300
9.99507	0.00000	5055.80300
9.99892	0.00000	5055.80300
