Time (s)   Thrust (N)   RPM
0.00023	0.00000	3753.39600
0.00408	0.00000	3753.39600
0.00791	0.00000	3753.39600
0.01172	0.00000	3746.57800
0.01556	0.00000	3746.57800
0.01938	0.00000	3746.57800
0.02319	0.00000	3746.57800
0.02702	0.00000	3746.57800
0.03087	0.00000	3733.01600
0.03470	0.00000	3733.01600
0.03852	0.00000	3733.01600
0.04233	0.00000	3733.01600
0.04614	0.00000	3733.01600
0.04995	0.00000	3604.16600
0.05375	0.00000	3604.16600
0.05757	0.00000	3604.16600
0.06141	0.00000	3604.16600
0.06525	0.00000	3488.78800
0.06907	0.00000	3488.78800
0.07287	0.00000	3488.78800
0.07667	0.00000	3488.78800
0.08048	0.00000	3488.78800
0.08428	0.00000	3391.11300
0.08809	0.00000	3391.11300
0.09189	0.00000	3391.11300
0.09570	0.00000	3391.11300
0.09951	0.00000	3270.08900
0.10332	0.00000	3270.08900
0.10712	0.00000	3270.08900
0.11092	0.00000	3270.08900
0.11473	0.00000	3146.25000
0.11854	0.00000	3146.25000
0.12234	0.00000	3146.25000
0.12614	0.00000	3146.25000
0.12996	0.00000	3092.98100
0.13377	0.00000	3092.98100
0.13757	0.00000	3092.98100
0.14139	0.00000	3092.98100
0.14521	0.00000	3092.98100
0.14901	0.00000	3006.19800
0.15281	0.00000	3006.19800
0.15663	0.00000	3006.19800
0.16044	0.00000	3006.19800
0.16425	0.00000	2930.67200
0.16806	0.00000	2930.67200
0.17188	0.00000	2930.67200
0.17568	0.00000	2930.67200
0.17948	0.00000	2856.19700
0.18329	0.00000	2856.19700
0.18709	0.00000	2856.19700
0.19090	0.00000	2856.19700
0.19470	0.00000	2788.46100
0.19850	0.00000	2788.46100
0.20232	0.00000	2788.46100
0.20613	0.00000	2788.46100
0.20993	0.00000	2723.59900
0.21374	0.00000	2723.59900
0.21756	0.00000	2723.59900
0.22137	0.00000	2723.59900
0.22517	0.00000	2665.76000
0.22898	0.00000	2665.76000
0.23279	0.00000	2665.76000
0.23660	0.00000	2665.76000
0.24040	0.00000	2615.13100
0.24420	0.00000	2615.13100
0.24800	0.00000	2615.13100
0.25181	0.00000	2615.13100
0.25562	0.00000	2567.75400
0.25942	0.00000	2567.75400
0.26323	0.00000	2567.75400
0.26703	0.00000	2538.00600
0.27083	0.00000	2538.00600
0.27463	0.00000	2538.00600
0.27843	0.00000	2538.00600
0.28224	0.00000	2478.88500
0.28604	0.00000	2478.88500
0.28984	0.00000	2478.88500
0.29364	0.00000	2478.88500
0.29744	0.00000	2436.65500
0.30125	0.00000	2436.65500
0.30506	0.00000	2436.65500
0.30887	0.00000	2436.65500
0.31267	0.00000	2407.67000
0.31647	0.00000	2407.67000
0.32028	0.00000	2407.67000
0.32409	0.00000	2407.67000
0.32789	0.00000	2356.53400
0.33170	0.00000	2356.53400
0.33550	0.00000	2356.53400
0.33931	0.00000	2356.53400
0.34311	0.00000	2322.24700
0.34691	0.00000	2322.24700
0.35071	0.00000	2322.24700
0.35453	0.00000	2300.34700
0.35834	0.00000	2300.34700
0.36214	0.00000	2300.34700
0.36594	0.00000	2300.34700
0.36975	0.00000	2269.96500
0.37355	0.00000	2269.96500
0.37735	0.00000	2269.96500
0.38116	0.00000	2269.96500
0.38496	0.00000	2256.13300
0.38876	0.00000	2256.13300
0.39255	0.00000	2256.13300
0.39635	0.00000	2203.56300
0.40015	0.00000	2203.56300
0.40396	0.00000	2203.56300
0.40776	0.00000	2203.56300
0.41156	0.00000	2177.27800
0.41537	0.00000	2177.27800
0.41918	0.00000	2177.27800
0.42298	0.00000	2177.27800
0.42678	0.00000	2175.70700
0.43058	0.00000	2175.70700
0.43438	0.00000	2175.70700
0.43819	0.00000	2151.78500
0.44199	0.00000	2151.78500
0.44580	0.00000	2151.78500
0.44960	0.00000	2151.78500
0.45340	0.00000	2120.53500
0.45721	0.00000	2120.53500
0.46101	0.00000	2120.53500
0.46481	0.00000	2120.53500
0.46861	0.00000	2107.14300
0.47242	0.00000	2107.14300
0.47622	0.00000	2107.14300
0.48002	0.00000	2091.34600
0.48382	0.00000	2091.34600
0.48762	0.00000	2091.34600
0.49142	0.00000	2091.34600
0.49522	0.00000	2073.31700
0.49902	0.00000	2073.31700
0.50283	0.00000	2073.31700
0.50662	0.00000	2073.31700
0.51043	0.00000	2035.71400
0.51423	0.00000	2035.71400
0.51804	0.00000	2035.71400
0.52184	0.00000	2019.23000
0.52564	0.00000	2019.23000
0.52944	0.00000	2019.23000
0.53324	0.00000	2019.23000
0.53705	0.00000	2010.21600
0.54085	0.00000	2010.21600
0.54465	0.00000	2010.21600
0.54845	0.00000	2002.42700
0.55225	0.00000	2002.42700
0.55606	0.00000	2002.42700
0.55986	0.00000	2002.42700
0.56365	0.00000	1979.67200
0.56746	0.00000	1979.67200
0.57126	0.00000	1979.67200
0.57506	0.00000	1979.67200
0.57886	0.00000	1956.12900
0.58266	0.00000	1956.12900
0.58647	0.00000	1956.12900
0.59027	0.00000	1947.81500
0.59408	0.00000	1947.81500
0.59788	0.00000	1947.81500
0.60168	0.00000	1947.81500
0.60544	0.00000	1938.71300
0.60924	0.00000	1938.71300
0.61304	0.00000	1938.71300
0.61684	0.00000	1934.74200
0.62064	0.00000	1934.74200
0.62445	0.00000	1934.74200
0.62826	0.00000	1934.74200
0.63206	0.00000	1930.14700
0.63587	0.00000	1930.14700
0.63967	0.00000	1930.14700
0.64347	0.00000	1921.41000
0.64727	0.00000	1921.41000
0.65107	0.00000	1921.41000
0.65488	0.00000	1921.41000
0.65869	0.00000	1897.97800
0.66249	0.00000	1897.97800
0.66628	0.00000	1897.97800
0.67008	0.00000	1897.97800
0.67388	0.00000	1884.19100
0.67769	0.00000	1884.19100
0.68144	0.00000	1884.19100
0.68524	0.00000	1884.28200
0.68904	0.00000	1884.28200
0.69285	0.00000	1884.28200
0.69666	0.00000	1884.28200
0.70046	0.00000	1865.80800
0.70426	0.00000	1865.80800
0.70807	0.00000	1865.80800
0.71187	0.00000	1861.07600
0.71568	0.00000	1861.07600
0.71948	0.00000	1861.07600
0.72329	0.00000	1861.07600
0.72710	0.00000	1842.83000
0.73089	0.00000	1842.83000
0.73469	0.00000	1842.83000
0.73850	0.00000	1837.87100
0.74230	0.00000	1837.87100
0.74610	0.00000	1837.87100
0.74990	0.00000	1837.87100
0.75370	0.00000	1824.44800
0.75751	0.00000	1824.44800
0.76131	0.00000	1824.44800
0.76511	0.00000	1819.30700
0.76893	0.00000	1819.30700
0.77273	0.00000	1819.30700
0.77653	0.00000	1819.30700
0.78033	0.00000	1823.94800
0.78413	0.00000	1823.94800
0.78794	0.00000	1823.94800
0.79174	0.00000	1823.43700
0.79554	0.00000	1823.43700
0.79935	0.00000	1823.43700
0.80316	0.00000	1823.43700
0.80696	0.00000	1810.02400
0.81075	0.00000	1810.02400
0.81456	0.00000	1810.02400
0.81837	0.00000	1804.68700
0.82217	0.00000	1804.68700
0.82597	0.00000	1804.68700
0.82977	0.00000	1804.68700
0.83359	0.00000	1791.46000
0.83740	0.00000	1791.46000
0.84120	0.00000	1791.46000
0.84500	0.00000	1790.62500
0.84881	0.00000	1790.62500
0.85262	0.00000	1790.62500
0.85643	0.00000	1790.62500
0.86023	0.00000	1777.53700
0.86404	0.00000	1777.53700
0.86784	0.00000	1777.53700
0.87165	0.00000	1776.56200
0.87546	0.00000	1776.56200
0.87926	0.00000	1776.56200
0.88307	0.00000	1776.56200
0.88687	0.00000	1790.62500
0.89068	0.00000	1790.62500
0.89747	0.00000	1775.56800
0.90148	0.00000	1775.56800
0.90566	0.00000	1775.56800
0.90985	0.00000	1775.56800
0.91378	0.00000	1754.33100
0.91763	0.00000	1754.33100
0.92160	0.00000	1754.33100
0.92556	0.00000	1757.81200
0.92951	0.00000	1757.81200
0.93346	0.00000	1757.81200
0.93740	0.00000	1748.43700
0.94135	0.00000	1748.43700
0.94532	0.00000	1748.43700
0.94927	0.00000	1748.43700
0.95320	0.00000	1745.04900
0.95711	0.00000	1745.04900
0.96101	0.00000	1745.04900
0.96492	0.00000	1743.75000
0.96885	0.00000	1743.75000
0.97272	0.00000	1743.75000
0.97654	0.00000	1743.75000
0.98035	0.00000	1743.75000
0.98416	0.00000	1743.75000
0.98796	0.00000	1743.75000
0.99177	0.00000	1739.06200
0.99557	0.00000	1739.06200
0.99937	0.00000	1739.06200
1.00318	0.00000	1729.68700
1.00699	0.00000	1729.68700
1.01084	0.00000	1729.68700
1.01465	0.00000	1729.68700
1.01846	0.00000	1739.06200
1.02226	0.00000	1739.06200
1.02607	0.00000	1739.06200
1.02988	0.00000	1737.68900
1.03368	0.00000	1737.68900
1.03749	0.00000	1737.68900
1.04129	0.00000	1737.68900
1.04510	0.00000	1734.37500
1.04890	0.00000	1734.37500
1.05271	0.00000	1734.37500
1.05650	0.00000	1737.68900
1.06032	0.00000	1737.68900
1.06413	0.00000	1737.68900
1.06793	0.00000	1737.68900
1.07174	0.00000	1725.00000
1.07554	0.00000	1725.00000
1.07934	0.00000	1725.00000
1.08314	0.00000	1732.95400
1.08695	0.00000	1732.95400
1.09075	0.00000	1732.95400
1.09456	0.00000	1732.95400
1.09836	0.00000	1720.31200
1.10216	0.00000	1720.31200
1.10596	0.00000	1720.31200
1.10976	0.00000	1723.48400
1.11357	0.00000	1723.48400
1.11737	0.00000	1723.48400
1.12117	0.00000	1723.48400
1.12497	0.00000	1715.62500
1.12878	0.00000	1715.62500
1.13260	0.00000	1715.62500
1.13641	0.00000	1701.56200
1.14021	0.00000	1701.56200
1.14401	0.00000	1701.56200
1.14781	0.00000	1714.01500
1.15162	0.00000	1714.01500
1.15542	0.00000	1714.01500
1.15922	0.00000	1714.01500
1.16303	0.00000	1718.75000
1.16684	0.00000	1718.75000
1.17064	0.00000	1718.75000
1.17444	0.00000	1709.28000
1.17824	0.00000	1709.28000
1.18205	0.00000	1709.28000
1.18585	0.00000	1709.28000
1.18965	0.00000	1706.25000
1.19344	0.00000	1706.25000
1.19725	0.00000	1706.25000
1.20105	0.00000	1709.28000
1.20485	0.00000	1709.28000
1.20865	0.00000	1709.28000
1.21245	0.00000	1709.28000
1.21625	0.00000	1696.87500
1.22005	0.00000	1696.87500
1.22386	0.00000	1696.87500
1.22766	0.00000	1704.54500
1.23147	0.00000	1704.54500
1.23527	0.00000	1704.54500
1.23906	0.00000	1704.54500
1.24288	0.00000	1714.01500
1.24668	0.00000	1714.01500
1.25048	0.00000	1714.01500
1.25428	0.00000	1704.54500
1.25808	0.00000	1704.54500
1.26188	0.00000	1704.54500
1.26569	0.00000	1704.54500
1.26944	0.00000	1714.01500
1.27324	0.00000	1714.01500
1.27704	0.00000	1714.01500
1.28084	0.00000	1699.81000
1.28465	0.00000	1699.81000
1.28845	0.00000	1699.81000
1.29225	0.00000	1699.81000
1.29605	0.00000	1699.81000
1.29985	0.00000	1699.81000
1.30366	0.00000	1699.81000
1.30746	0.00000	1699.81000
1.31126	0.00000	1699.81000
1.31506	0.00000	1699.81000
1.31886	0.00000	1690.34000
1.32267	0.00000	1690.34000
1.32648	0.00000	1690.34000
1.33028	0.00000	1690.34000
1.33408	0.00000	1699.81000
1.33788	0.00000	1699.81000
1.34168	0.00000	1699.81000
1.34544	0.00000	1695.07500
1.34926	0.00000	1695.07500
1.35306	0.00000	1695.07500
1.35686	0.00000	1695.07500
1.36067	0.00000	1704.54500
1.36447	0.00000	1704.54500
1.36827	0.00000	1704.54500
1.37207	0.00000	1707.58900
1.37588	0.00000	1707.58900
1.37968	0.00000	1707.58900
1.38348	0.00000	1707.58900
1.38730	0.00000	1699.81000
1.39110	0.00000	1699.81000
1.39491	0.00000	1699.81000
1.39871	0.00000	1702.80600
1.40252	0.00000	1702.80600
1.40632	0.00000	1702.80600
1.41013	0.00000	1702.80600
1.41393	0.00000	1695.07500
1.41773	0.00000	1695.07500
1.42153	0.00000	1695.07500
1.42533	0.00000	1702.80600
1.42913	0.00000	1702.80600
1.43293	0.00000	1702.80600
1.43673	0.00000	1702.80600
1.44053	0.00000	1702.80600
1.44434	0.00000	1702.80600
1.44814	0.00000	1702.80600
1.45194	0.00000	1685.60600
1.45574	0.00000	1685.60600
1.45955	0.00000	1685.60600
1.46335	0.00000	1685.60600
1.46716	0.00000	1685.60600
1.47097	0.00000	1685.60600
1.47477	0.00000	1685.60600
1.47856	0.00000	1699.81000
1.48237	0.00000	1699.81000
1.48617	0.00000	1699.81000
1.48997	0.00000	1680.87100
1.49378	0.00000	1680.87100
1.49758	0.00000	1680.87100
1.50139	0.00000	1680.87100
1.50519	0.00000	1695.07500
1.50899	0.00000	1695.07500
1.51279	0.00000	1695.07500
1.51659	0.00000	1680.87100
1.52039	0.00000	1680.87100
1.52419	0.00000	1680.87100
1.52799	0.00000	1680.87100
1.53179	0.00000	1668.75000
1.53560	0.00000	1668.75000
1.53940	0.00000	1668.75000
1.54321	0.00000	1680.87100
1.54701	0.00000	1680.87100
1.55081	0.00000	1680.87100
1.55461	0.00000	1680.87100
1.55841	0.00000	1680.87100
1.56221	0.00000	1680.87100
1.56601	0.00000	1680.87100
1.56981	0.00000	1680.87100
1.57362	0.00000	1680.87100
1.57742	0.00000	1680.87100
1.58122	0.00000	1676.13600
1.58504	0.00000	1676.13600
1.58884	0.00000	1676.13600
1.59264	0.00000	1676.13600
1.59644	0.00000	1685.60600
1.60025	0.00000	1685.60600
1.60405	0.00000	1685.60600
1.60785	0.00000	1693.23900
1.61165	0.00000	1693.23900
1.61546	0.00000	1693.23900
1.61926	0.00000	1693.23900
1.62306	0.00000	1690.34000
1.62686	0.00000	1690.34000
1.63066	0.00000	1690.34000
1.63446	0.00000	1671.40100
1.63826	0.00000	1671.40100
1.64206	0.00000	1671.40100
1.64586	0.00000	1671.40100
1.64966	0.00000	1668.75000
1.65344	0.00000	1668.75000
1.65724	0.00000	1668.75000
1.66104	0.00000	1676.13600
1.66484	0.00000	1676.13600
1.66864	0.00000	1676.13600
1.67244	0.00000	1676.13600
1.67624	0.00000	1676.13600
1.68005	0.00000	1676.13600
1.68385	0.00000	1676.13600
1.68765	0.00000	1693.23900
1.69144	0.00000	1693.23900
1.69525	0.00000	1693.23900
1.69905	0.00000	1688.45600
1.70286	0.00000	1688.45600
1.70666	0.00000	1688.45600
1.71046	0.00000	1688.45600
1.71426	0.00000	1680.87100
1.71807	0.00000	1680.87100
1.72187	0.00000	1680.87100
1.72568	0.00000	1671.40100
1.72944	0.00000	1671.40100
1.73325	0.00000	1671.40100
1.73705	0.00000	1671.40100
1.74085	0.00000	1668.75000
1.74465	0.00000	1668.75000
1.74846	0.00000	1668.75000
1.75225	0.00000	1671.40100
1.75606	0.00000	1671.40100
1.75987	0.00000	1671.40100
1.76368	0.00000	1671.40100
1.76748	0.00000	1680.87100
1.77128	0.00000	1680.87100
1.77508	0.00000	1680.87100
1.77889	0.00000	1688.45600
1.78269	0.00000	1688.45600
1.78650	0.00000	1688.45600
1.79031	0.00000	1688.45600
1.79411	0.00000	1688.45600
1.79791	0.00000	1688.45600
1.80171	0.00000	1688.45600
1.80552	0.00000	1671.40100
1.80932	0.00000	1671.40100
1.81312	0.00000	1671.40100
1.81692	0.00000	1671.40100
1.82073	0.00000	1671.40100
1.82454	0.00000	1671.40100
1.82834	0.00000	1671.40100
1.83214	0.00000	1680.87100
1.83594	0.00000	1680.87100
1.83975	0.00000	1680.87100
1.84355	0.00000	1688.45600
1.84735	0.00000	1688.45600
1.85115	0.00000	1688.45600
1.85496	0.00000	1688.45600
1.85876	0.00000	1680.87100
1.86256	0.00000	1680.87100
1.86636	0.00000	1680.87100
1.87017	0.00000	1666.66600
1.87397	0.00000	1666.66600
1.87778	0.00000	1666.66600
1.88158	0.00000	1666.66600
1.88538	0.00000	1676.13600
1.88919	0.00000	1676.13600
1.89299	0.00000	1676.13600
1.89679	0.00000	1671.40100
1.90059	0.00000	1671.40100
1.90439	0.00000	1671.40100
1.90820	0.00000	1671.40100
1.91203	0.00000	1671.40100
1.91583	0.00000	1671.40100
1.91964	0.00000	1671.40100
1.92344	0.00000	1671.40100
1.92724	0.00000	1671.40100
1.93104	0.00000	1671.40100
1.93484	0.00000	1666.66600
1.93866	0.00000	1666.66600
1.94246	0.00000	1666.66600
1.94627	0.00000	1666.66600
1.95008	0.00000	1659.37500
1.95388	0.00000	1659.37500
1.95768	0.00000	1659.37500
1.96150	0.00000	1666.66600
1.96530	0.00000	1666.66600
1.96910	0.00000	1666.66600
1.97290	0.00000	1666.66600
1.97670	0.00000	1680.87100
1.98050	0.00000	1680.87100
1.98431	0.00000	1680.87100
1.98812	0.00000	1671.40100
1.99192	0.00000	1671.40100
1.99573	0.00000	1671.40100
1.99953	0.00000	1671.40100
2.00333	0.00000	1666.66600
2.00714	0.00000	1666.66600
2.01095	0.00000	1666.66600
2.01475	0.00000	1671.40100
2.01855	0.00000	1671.40100
2.02235	0.00000	1671.40100
2.02615	0.00000	1666.66600
2.02995	0.00000	1666.66600
2.03375	0.00000	1666.66600
2.03755	0.00000	1666.66600
2.04135	0.00000	1676.13600
2.04515	0.00000	1676.13600
2.04896	0.00000	1676.13600
2.05275	0.00000	1666.66600
2.05655	0.00000	1666.66600
2.06035	0.00000	1666.66600
2.06415	0.00000	1666.66600
2.06795	0.00000	1659.37500
2.07176	0.00000	1659.37500
2.07556	0.00000	1659.37500
2.07936	0.00000	1666.66600
2.08317	0.00000	1666.66600
2.08698	0.00000	1666.66600
2.09077	0.00000	1666.66600
2.09458	0.00000	1676.13600
2.09838	0.00000	1676.13600
2.10219	0.00000	1676.13600
2.10599	0.00000	1666.66600
2.10979	0.00000	1666.66600
2.11361	0.00000	1666.66600
2.11745	0.00000	1666.66600
2.12127	0.00000	1666.66600
2.12507	0.00000	1666.66600
2.12888	0.00000	1666.66600
2.13268	0.00000	1671.40100
2.13648	0.00000	1671.40100
2.14029	0.00000	1671.40100
2.14409	0.00000	1683.67300
2.14789	0.00000	1683.67300
2.15170	0.00000	1683.67300
2.15551	0.00000	1683.67300
2.15932	0.00000	1680.87100
2.16314	0.00000	1680.87100
2.16694	0.00000	1680.87100
2.17074	0.00000	1666.66600
2.17455	0.00000	1666.66600
2.17836	0.00000	1666.66600
2.18216	0.00000	1666.66600
2.18596	0.00000	1659.37500
2.18977	0.00000	1659.37500
2.19357	0.00000	1659.37500
2.19739	0.00000	1666.66600
2.20119	0.00000	1666.66600
2.20500	0.00000	1666.66600
2.20880	0.00000	1666.66600
2.21260	0.00000	1671.40100
2.21640	0.00000	1671.40100
2.22020	0.00000	1671.40100
2.22400	0.00000	1666.66600
2.22781	0.00000	1666.66600
2.23161	0.00000	1666.66600
2.23542	0.00000	1666.66600
2.23922	0.00000	1666.66600
2.24302	0.00000	1666.66600
2.24682	0.00000	1666.66600
2.25063	0.00000	1683.67300
2.25443	0.00000	1683.67300
2.25824	0.00000	1683.67300
2.26204	0.00000	1683.67300
2.26584	0.00000	1683.67300
2.26965	0.00000	1683.67300
2.27344	0.00000	1683.67300
2.27724	0.00000	1680.87100
2.28104	0.00000	1680.87100
2.28484	0.00000	1680.87100
2.28864	0.00000	1661.93100
2.29244	0.00000	1661.93100
2.29624	0.00000	1661.93100
2.30004	0.00000	1661.93100
2.30384	0.00000	1676.13600
2.30765	0.00000	1676.13600
2.31145	0.00000	1676.13600
2.31525	0.00000	1678.89000
2.31905	0.00000	1678.89000
2.32285	0.00000	1678.89000
2.32665	0.00000	1678.89000
2.33045	0.00000	1688.45600
2.33425	0.00000	1688.45600
2.33805	0.00000	1688.45600
2.34185	0.00000	1666.66600
2.34565	0.00000	1666.66600
2.34944	0.00000	1666.66600
2.35325	0.00000	1666.66600
2.35705	0.00000	1666.66600
2.36086	0.00000	1666.66600
2.36466	0.00000	1666.66600
2.36846	0.00000	1676.13600
2.37227	0.00000	1676.13600
2.37607	0.00000	1676.13600
2.37987	0.00000	1688.45600
2.38367	0.00000	1688.45600
2.38747	0.00000	1688.45600
2.39127	0.00000	1688.45600
2.39507	0.00000	1676.13600
2.39887	0.00000	1676.13600
2.40267	0.00000	1676.13600
2.40647	0.00000	1666.66600
2.41028	0.00000	1666.66600
2.41408	0.00000	1666.66600
2.41788	0.00000	1666.66600
2.42168	0.00000	1676.13600
2.42544	0.00000	1676.13600
2.42926	0.00000	1676.13600
2.43305	0.00000	1683.67300
2.43685	0.00000	1683.67300
2.44067	0.00000	1683.67300
2.44447	0.00000	1683.67300
2.44827	0.00000	1683.67300
2.45207	0.00000	1683.67300
2.45587	0.00000	1683.67300
2.45967	0.00000	1666.66600
2.46347	0.00000	1666.66600
2.46727	0.00000	1666.66600
2.47107	0.00000	1661.93100
2.47487	0.00000	1661.93100
2.47867	0.00000	1661.93100
2.48247	0.00000	1661.93100
2.48628	0.00000	1676.13600
2.49008	0.00000	1676.13600
2.49389	0.00000	1676.13600
2.49770	0.00000	1661.93100
2.50151	0.00000	1661.93100
2.50532	0.00000	1661.93100
2.50912	0.00000	1661.93100
2.51293	0.00000	1659.37500
2.51674	0.00000	1659.37500
2.52054	0.00000	1659.37500
2.52434	0.00000	1661.93100
2.52814	0.00000	1661.93100
2.53195	0.00000	1661.93100
2.53576	0.00000	1661.93100
2.53956	0.00000	1671.40100
2.54336	0.00000	1671.40100
2.54717	0.00000	1671.40100
2.55097	0.00000	1671.40100
2.55477	0.00000	1671.40100
2.55857	0.00000	1671.40100
2.56238	0.00000	1666.66600
2.56618	0.00000	1666.66600
2.56998	0.00000	1666.66600
2.57380	0.00000	1666.66600
2.57760	0.00000	1683.67300
2.58140	0.00000	1683.67300
2.58521	0.00000	1683.67300
2.58902	0.00000	1683.67300
2.59283	0.00000	1683.67300
2.59663	0.00000	1683.67300
2.60043	0.00000	1683.67300
2.60424	0.00000	1676.13600
2.60805	0.00000	1676.13600
2.61196	0.00000	1676.13600
2.61579	0.00000	1666.66600
2.61960	0.00000	1666.66600
2.62341	0.00000	1666.66600
2.62722	0.00000	1666.66600
2.63102	0.00000	1676.13600
2.63482	0.00000	1676.13600
2.63863	0.00000	1676.13600
2.64243	0.00000	1678.89000
2.64624	0.00000	1678.89000
2.65004	0.00000	1678.89000
2.65385	0.00000	1683.67300
2.65765	0.00000	1683.67300
2.66144	0.00000	1683.67300
2.66525	0.00000	1683.67300
2.66905	0.00000	1666.66600
2.67286	0.00000	1666.66600
2.67667	0.00000	1666.66600
2.68047	0.00000	1661.93100
2.68428	0.00000	1661.93100
2.68808	0.00000	1661.93100
2.69188	0.00000	1661.93100
2.69569	0.00000	1676.13600
2.69948	0.00000	1676.13600
2.70329	0.00000	1676.13600
2.70708	0.00000	1678.89000
2.71089	0.00000	1678.89000
2.71470	0.00000	1678.89000
2.71850	0.00000	1678.89000
2.72229	0.00000	1654.68700
2.72609	0.00000	1654.68700
2.72991	0.00000	1654.68700
2.73372	0.00000	1666.66600
2.73753	0.00000	1666.66600
2.74133	0.00000	1666.66600
2.74514	0.00000	1666.66600
2.74893	0.00000	1676.13600
2.75274	0.00000	1676.13600
2.75654	0.00000	1676.13600
2.76034	0.00000	1661.93100
2.76414	0.00000	1661.93100
2.76794	0.00000	1661.93100
2.77174	0.00000	1666.66600
2.77554	0.00000	1666.66600
2.77935	0.00000	1666.66600
2.78315	0.00000	1666.66600
2.78696	0.00000	1683.67300
2.79076	0.00000	1683.67300
2.79456	0.00000	1683.67300
2.79837	0.00000	1678.89000
2.80216	0.00000	1678.89000
2.80596	0.00000	1678.89000
2.80976	0.00000	1678.89000
2.81356	0.00000	1676.13600
2.81737	0.00000	1676.13600
2.82117	0.00000	1676.13600
2.82497	0.00000	1666.66600
2.82877	0.00000	1666.66600
2.83257	0.00000	1666.66600
2.83637	0.00000	1666.66600
2.84017	0.00000	1680.87100
2.84398	0.00000	1680.87100
2.84778	0.00000	1680.87100
2.85159	0.00000	1683.67300
2.85539	0.00000	1683.67300
2.85920	0.00000	1683.67300
2.86300	0.00000	1683.67300
2.86680	0.00000	1666.66600
2.87061	0.00000	1666.66600
2.87440	0.00000	1666.66600
2.87821	0.00000	1661.93100
2.88201	0.00000	1661.93100
2.88582	0.00000	1661.93100
2.88962	0.00000	1666.66600
2.89342	0.00000	1666.66600
2.89724	0.00000	1666.66600
2.90104	0.00000	1666.66600
2.90484	0.00000	1671.40100
2.90900	0.00000	1671.40100
2.91284	0.00000	1671.40100
2.91665	0.00000	1678.89000
2.92045	0.00000	1678.89000
2.92426	0.00000	1678.89000
2.92806	0.00000	1678.89000
2.93187	0.00000	1654.68700
2.93567	0.00000	1654.68700
2.93947	0.00000	1654.68700
2.94327	0.00000	1666.66600
2.94707	0.00000	1666.66600
2.95087	0.00000	1666.66600
2.95467	0.00000	1666.66600
2.95847	0.00000	1666.66600
2.96227	0.00000	1666.66600
2.96607	0.00000	1666.66600
2.96987	0.00000	1661.93100
2.97367	0.00000	1661.93100
2.97744	0.00000	1661.93100
2.98124	0.00000	1661.93100
2.98505	0.00000	1661.93100
2.98885	0.00000	1661.93100
2.99265	0.00000	1661.93100
2.99646	0.00000	1676.13600
3.00026	0.00000	1676.13600
3.00406	0.00000	1676.13600
3.00786	0.00000	1683.67300
3.01167	0.00000	1683.67300
3.01547	0.00000	1683.67300
3.01927	0.00000	1683.67300
3.02308	0.00000	1680.87100
3.02688	0.00000	1680.87100
3.03068	0.00000	1680.87100
3.03448	0.00000	1666.66600
3.03829	0.00000	1666.66600
3.04209	0.00000	1666.66600
3.04590	0.00000	1666.66600
3.04971	0.00000	1666.66600
3.05351	0.00000	1666.66600
3.05731	0.00000	1666.66600
3.06112	0.00000	1678.89000
3.06492	0.00000	1678.89000
3.06872	0.00000	1678.89000
3.07253	0.00000	1678.89000
3.07633	0.00000	1678.89000
3.08015	0.00000	1678.89000
3.08398	0.00000	1678.89000
3.08781	0.00000	1671.40100
3.09163	0.00000	1671.40100
3.09545	0.00000	1671.40100
3.09927	0.00000	1661.93100
3.10310	0.00000	1661.93100
3.10693	0.00000	1661.93100
3.11075	0.00000	1661.93100
3.11457	0.00000	1676.13600
3.11840	0.00000	1676.13600
3.12222	0.00000	1676.13600
3.12604	0.00000	1666.66600
3.12987	0.00000	1666.66600
3.13369	0.00000	1666.66600
3.13751	0.00000	1666.66600
3.14134	0.00000	1676.13600
3.14516	0.00000	1676.13600
3.14898	0.00000	1676.13600
3.15280	0.00000	1661.93100
3.15662	0.00000	1661.93100
3.16045	0.00000	1661.93100
3.16427	0.00000	1683.67300
3.16810	0.00000	1683.67300
3.17192	0.00000	1683.67300
3.17575	0.00000	1683.67300
3.17957	0.00000	1676.13600
3.18340	0.00000	1676.13600
3.18722	0.00000	1676.13600
3.19104	0.00000	1666.66600
3.19487	0.00000	1666.66600
3.19869	0.00000	1666.66600
3.20251	0.00000	1666.66600
3.20633	0.00000	1659.37500
3.21017	0.00000	1659.37500
3.21399	0.00000	1659.37500
3.21781	0.00000	1678.89000
3.22164	0.00000	1678.89000
3.22545	0.00000	1678.89000
3.22927	0.00000	1678.89000
3.23309	0.00000	1666.66600
3.23691	0.00000	1666.66600
3.24073	0.00000	1666.66600
3.24455	0.00000	1666.66600
3.24837	0.00000	1666.66600
3.25219	0.00000	1666.66600
3.25602	0.00000	1661.93100
3.25984	0.00000	1661.93100
3.26367	0.00000	1661.93100
3.26749	0.00000	1661.93100
3.27131	0.00000	1676.13600
3.27515	0.00000	1676.13600
3.27896	0.00000	1676.13600
3.28280	0.00000	1678.89000
3.28663	0.00000	1678.89000
3.29045	0.00000	1678.89000
3.29427	0.00000	1678.89000
3.29809	0.00000	1659.37500
3.30192	0.00000	1659.37500
3.30574	0.00000	1659.37500
3.30956	0.00000	1671.40100
3.31339	0.00000	1671.40100
3.31722	0.00000	1671.40100
3.32104	0.00000	1666.66600
3.32486	0.00000	1666.66600
3.32868	0.00000	1666.66600
3.33251	0.00000	1666.66600
3.33634	0.00000	1671.40100
3.34017	0.00000	1671.40100
3.34400	0.00000	1671.40100
3.34782	0.00000	1683.67300
3.35164	0.00000	1683.67300
3.35546	0.00000	1683.67300
3.35928	0.00000	1683.67300
3.36310	0.00000	1659.37500
3.36693	0.00000	1659.37500
3.37074	0.00000	1659.37500
3.37456	0.00000	1661.93100
3.37839	0.00000	1661.93100
3.38221	0.00000	1661.93100
3.38604	0.00000	1661.93100
3.38986	0.00000	1676.13600
3.39369	0.00000	1676.13600
3.39751	0.00000	1676.13600
3.40134	0.00000	1683.67300
3.40516	0.00000	1683.67300
3.40898	0.00000	1683.67300
3.41281	0.00000	1666.66600
3.41663	0.00000	1666.66600
3.42045	0.00000	1666.66600
3.42428	0.00000	1666.66600
3.42811	0.00000	1671.40100
3.43193	0.00000	1671.40100
3.43575	0.00000	1671.40100
3.43957	0.00000	1678.89000
3.44339	0.00000	1678.89000
3.44722	0.00000	1678.89000
3.45104	0.00000	1678.89000
3.45487	0.00000	1676.13600
3.45870	0.00000	1676.13600
3.46252	0.00000	1676.13600
3.46635	0.00000	1666.66600
3.47017	0.00000	1666.66600
3.47399	0.00000	1666.66600
3.47781	0.00000	1666.66600
3.48164	0.00000	1671.40100
3.48544	0.00000	1671.40100
3.48927	0.00000	1671.40100
3.49309	0.00000	1683.67300
3.49691	0.00000	1683.67300
3.50073	0.00000	1683.67300
3.50455	0.00000	1678.89000
3.50838	0.00000	1678.89000
3.51221	0.00000	1678.89000
3.51604	0.00000	1678.89000
3.51986	0.00000	1676.13600
3.52368	0.00000	1676.13600
3.52750	0.00000	1676.13600
3.53133	0.00000	1666.66600
3.53515	0.00000	1666.66600
3.53898	0.00000	1666.66600
3.54280	0.00000	1666.66600
3.54662	0.00000	1671.40100
3.55045	0.00000	1671.40100
3.55426	0.00000	1671.40100
3.55809	0.00000	1683.67300
3.56190	0.00000	1683.67300
3.56572	0.00000	1683.67300
3.56954	0.00000	1683.67300
3.57335	0.00000	1683.67300
3.57717	0.00000	1683.67300
3.58100	0.00000	1683.67300
3.58482	0.00000	1666.66600
3.58864	0.00000	1666.66600
3.59246	0.00000	1666.66600
3.59629	0.00000	1671.40100
3.60011	0.00000	1671.40100
3.60393	0.00000	1671.40100
3.60776	0.00000	1671.40100
3.61159	0.00000	1680.87100
3.61541	0.00000	1680.87100
3.61923	0.00000	1680.87100
3.62305	0.00000	1678.89000
3.62688	0.00000	1678.89000
3.63070	0.00000	1678.89000
3.63452	0.00000	1678.89000
3.63834	0.00000	1676.13600
3.64216	0.00000	1676.13600
3.64598	0.00000	1676.13600
3.64980	0.00000	1666.66600
3.65362	0.00000	1666.66600
3.65744	0.00000	1666.66600
3.66127	0.00000	1666.66600
3.66509	0.00000	1666.66600
3.66891	0.00000	1666.66600
3.67273	0.00000	1666.66600
3.67655	0.00000	1676.13600
3.68038	0.00000	1676.13600
3.68420	0.00000	1676.13600
3.68803	0.00000	1683.67300
3.69186	0.00000	1683.67300
3.69567	0.00000	1683.67300
3.69949	0.00000	1683.67300
3.70333	0.00000	1676.13600
3.70715	0.00000	1676.13600
3.71098	0.00000	1676.13600
3.71481	0.00000	1666.66600
3.71863	0.00000	1666.66600
3.72245	0.00000	1666.66600
3.72627	0.00000	1666.66600
3.73009	0.00000	1666.66600
3.73391	0.00000	1666.66600
3.73774	0.00000	1666.66600
3.74155	0.00000	1683.67300
3.74537	0.00000	1683.67300
3.74919	0.00000	1683.67300
3.75302	0.00000	1666.66600
3.75684	0.00000	1666.66600
3.76067	0.00000	1666.66600
3.76450	0.00000	1666.66600
3.76833	0.00000	1654.68700
3.77215	0.00000	1654.68700
3.77597	0.00000	1654.68700
3.77980	0.00000	1666.66600
3.78363	0.00000	1666.66600
3.78745	0.00000	1666.66600
3.79127	0.00000	1666.66600
3.79509	0.00000	1676.13600
3.79892	0.00000	1676.13600
3.80275	0.00000	1676.13600
3.80657	0.00000	1666.66600
3.81039	0.00000	1666.66600
3.81421	0.00000	1666.66600
3.81804	0.00000	1671.40100
3.82186	0.00000	1671.40100
3.82569	0.00000	1671.40100
3.82951	0.00000	1671.40100
3.83334	0.00000	1666.66600
3.83715	0.00000	1666.66600
3.84097	0.00000	1666.66600
3.84479	0.00000	1683.67300
3.84862	0.00000	1683.67300
3.85244	0.00000	1683.67300
3.85626	0.00000	1683.67300
3.86008	0.00000	1676.13600
3.86390	0.00000	1676.13600
3.86773	0.00000	1676.13600
3.87155	0.00000	1666.66600
3.87537	0.00000	1666.66600
3.87919	0.00000	1666.66600
3.88301	0.00000	1666.66600
3.88683	0.00000	1664.06200
3.89066	0.00000	1664.06200
3.89448	0.00000	1664.06200
3.89831	0.00000	1683.67300
3.90214	0.00000	1683.67300
3.90596	0.00000	1683.67300
3.90978	0.00000	1683.67300
3.91362	0.00000	1683.67300
3.91746	0.00000	1683.67300
3.92136	0.00000	1683.67300
3.92520	0.00000	1671.40100
3.92903	0.00000	1671.40100
3.93286	0.00000	1671.40100
3.93669	0.00000	1666.66600
3.94052	0.00000	1666.66600
3.94435	0.00000	1666.66600
3.94817	0.00000	1666.66600
3.95200	0.00000	1664.06200
3.95582	0.00000	1664.06200
3.95964	0.00000	1664.06200
3.96347	0.00000	1688.45600
3.96730	0.00000	1688.45600
3.97112	0.00000	1688.45600
3.97495	0.00000	1678.89000
3.97877	0.00000	1678.89000
3.98260	0.00000	1678.89000
3.98643	0.00000	1678.89000
3.99026	0.00000	1666.66600
3.99409	0.00000	1666.66600
3.99791	0.00000	1666.66600
4.00175	0.00000	1666.66600
4.00557	0.00000	1666.66600
4.00940	0.00000	1666.66600
4.01326	0.00000	1666.66600
4.01709	0.00000	1680.87100
4.02093	0.00000	1680.87100
4.02475	0.00000	1680.87100
4.02857	0.00000	1688.45600
4.03239	0.00000	1688.45600
4.03621	0.00000	1688.45600
4.04004	0.00000	1688.45600
4.04387	0.00000	1676.13600
4.04769	0.00000	1676.13600
4.05152	0.00000	1676.13600
4.05534	0.00000	1666.66600
4.05918	0.00000	1666.66600
4.06304	0.00000	1666.66600
4.06687	0.00000	1671.40100
4.07070	0.00000	1671.40100
4.07453	0.00000	1671.40100
4.07836	0.00000	1671.40100
4.08218	0.00000	1676.13600
4.08600	0.00000	1676.13600
4.08983	0.00000	1676.13600
4.09365	0.00000	1683.67300
4.09744	0.00000	1683.67300
4.10127	0.00000	1683.67300
4.10509	0.00000	1683.67300
4.10892	0.00000	1676.13600
4.11274	0.00000	1676.13600
4.11656	0.00000	1676.13600
4.12038	0.00000	1666.66600
4.12421	0.00000	1666.66600
4.12803	0.00000	1666.66600
4.13185	0.00000	1666.66600
4.13580	0.00000	1666.66600
4.13967	0.00000	1666.66600
4.14350	0.00000	1666.66600
4.14733	0.00000	1678.89000
4.15116	0.00000	1678.89000
4.15498	0.00000	1678.89000
4.15881	0.00000	1683.67300
4.16263	0.00000	1683.67300
4.16646	0.00000	1683.67300
4.17028	0.00000	1683.67300
4.17411	0.00000	1664.06200
4.17793	0.00000	1664.06200
4.18175	0.00000	1664.06200
4.18558	0.00000	1671.40100
4.18940	0.00000	1671.40100
4.19324	0.00000	1671.40100
4.19707	0.00000	1671.40100
4.20090	0.00000	1671.40100
4.20473	0.00000	1671.40100
4.20856	0.00000	1671.40100
4.21238	0.00000	1688.45600
4.21620	0.00000	1688.45600
4.22002	0.00000	1688.45600
4.22384	0.00000	1683.67300
4.22768	0.00000	1683.67300
4.23151	0.00000	1683.67300
4.23534	0.00000	1683.67300
4.23916	0.00000	1676.13600
4.24299	0.00000	1676.13600
4.24681	0.00000	1676.13600
4.25063	0.00000	1666.66600
4.25446	0.00000	1666.66600
4.25830	0.00000	1666.66600
4.26212	0.00000	1666.66600
4.26595	0.00000	1680.87100
4.26978	0.00000	1680.87100
4.27360	0.00000	1680.87100
4.27743	0.00000	1683.67300
4.28126	0.00000	1683.67300
4.28509	0.00000	1683.67300
4.28891	0.00000	1683.67300
4.29273	0.00000	1666.66600
4.29655	0.00000	1666.66600
4.30038	0.00000	1666.66600
4.30421	0.00000	1666.66600
4.30803	0.00000	1666.66600
4.31186	0.00000	1666.66600
4.31568	0.00000	1666.66600
4.31952	0.00000	1666.66600
4.32334	0.00000	1666.66600
4.32717	0.00000	1666.66600
4.33099	0.00000	1680.87100
4.33481	0.00000	1680.87100
4.33864	0.00000	1680.87100
4.34247	0.00000	1683.67300
4.34629	0.00000	1683.67300
4.35012	0.00000	1683.67300
4.35395	0.00000	1683.67300
4.35777	0.00000	1680.87100
4.36159	0.00000	1680.87100
4.36542	0.00000	1680.87100
4.36924	0.00000	1661.93100
4.37307	0.00000	1661.93100
4.37689	0.00000	1661.93100
4.38071	0.00000	1666.66600
4.38453	0.00000	1666.66600
4.38835	0.00000	1666.66600
4.39218	0.00000	1666.66600
4.39601	0.00000	1676.13600
4.39983	0.00000	1676.13600
4.40366	0.00000	1676.13600
4.40748	0.00000	1688.45600
4.41131	0.00000	1688.45600
4.41514	0.00000	1688.45600
4.41897	0.00000	1688.45600
4.42279	0.00000	1680.87100
4.42662	0.00000	1680.87100
4.43044	0.00000	1680.87100
4.43426	0.00000	1666.66600
4.43809	0.00000	1666.66600
4.44192	0.00000	1666.66600
4.44574	0.00000	1666.66600
4.44957	0.00000	1671.40100
4.45340	0.00000	1671.40100
4.45723	0.00000	1671.40100
4.46105	0.00000	1688.45600
4.46488	0.00000	1688.45600
4.46872	0.00000	1688.45600
4.47255	0.00000	1688.45600
4.47638	0.00000	1688.45600
4.48020	0.00000	1688.45600
4.48402	0.00000	1688.45600
4.48784	0.00000	1676.13600
4.49166	0.00000	1676.13600
4.49550	0.00000	1676.13600
4.49932	0.00000	1666.66600
4.50315	0.00000	1666.66600
4.50697	0.00000	1666.66600
4.51080	0.00000	1666.66600
4.51463	0.00000	1676.13600
4.51846	0.00000	1676.13600
4.52228	0.00000	1676.13600
4.52610	0.00000	1688.45600
4.52993	0.00000	1688.45600
4.53376	0.00000	1688.45600
4.53758	0.00000	1688.45600
4.54140	0.00000	1688.45600
4.54523	0.00000	1688.45600
4.54906	0.00000	1688.45600
4.55288	0.00000	1666.66600
4.55671	0.00000	1666.66600
4.56053	0.00000	1666.66600
4.56435	0.00000	1666.66600
4.56819	0.00000	1666.66600
4.57202	0.00000	1666.66600
4.57584	0.00000	1666.66600
4.57967	0.00000	1676.13600
4.58349	0.00000	1676.13600
4.58731	0.00000	1676.13600
4.59114	0.00000	1683.67300
4.59497	0.00000	1683.67300
4.59879	0.00000	1683.67300
4.60262	0.00000	1683.67300
4.60644	0.00000	1680.87100
4.61026	0.00000	1680.87100
4.61408	0.00000	1680.87100
4.61791	0.00000	1666.66600
4.62173	0.00000	1666.66600
4.62555	0.00000	1666.66600
4.62938	0.00000	1661.93100
4.63321	0.00000	1661.93100
4.63704	0.00000	1661.93100
4.64086	0.00000	1661.93100
4.64468	0.00000	1671.40100
4.64851	0.00000	1671.40100
4.65233	0.00000	1671.40100
4.65616	0.00000	1678.89000
4.65998	0.00000	1678.89000
4.66380	0.00000	1678.89000
4.66764	0.00000	1678.89000
4.67146	0.00000	1659.37500
4.67529	0.00000	1659.37500
4.67912	0.00000	1659.37500
4.68295	0.00000	1666.66600
4.68677	0.00000	1666.66600
4.69059	0.00000	1666.66600
4.69441	0.00000	1666.66600
4.69823	0.00000	1671.40100
4.70205	0.00000	1671.40100
4.70588	0.00000	1671.40100
4.70970	0.00000	1683.67300
4.71352	0.00000	1683.67300
4.71734	0.00000	1683.67300
4.72117	0.00000	1666.66600
4.72499	0.00000	1666.66600
4.72881	0.00000	1666.66600
4.73263	0.00000	1666.66600
4.73646	0.00000	1654.68700
4.74028	0.00000	1654.68700
4.74410	0.00000	1654.68700
4.74792	0.00000	1666.66600
4.75175	0.00000	1666.66600
4.75557	0.00000	1666.66600
4.75940	0.00000	1666.66600
4.76323	0.00000	1676.13600
4.76705	0.00000	1676.13600
4.77088	0.00000	1676.13600
4.77471	0.00000	1666.66600
4.77853	0.00000	1666.66600
4.78235	0.00000	1666.66600
4.78618	0.00000	1666.66600
4.79000	0.00000	1666.66600
4.79383	0.00000	1666.66600
4.79766	0.00000	1666.66600
4.80145	0.00000	1683.67300
4.80527	0.00000	1683.67300
4.80909	0.00000	1683.67300
4.81291	0.00000	1688.45600
4.81674	0.00000	1688.45600
4.82056	0.00000	1688.45600
4.82438	0.00000	1688.45600
4.82821	0.00000	1680.87100
4.83204	0.00000	1680.87100
4.83587	0.00000	1680.87100
4.83969	0.00000	1661.93100
4.84352	0.00000	1661.93100
4.84734	0.00000	1661.93100
4.85116	0.00000	1661.93100
4.85498	0.00000	1676.13600
4.85881	0.00000	1676.13600
4.86263	0.00000	1676.13600
4.86646	0.00000	1683.67300
4.87028	0.00000	1683.67300
4.87411	0.00000	1683.67300
4.87793	0.00000	1683.67300
4.88175	0.00000	1683.67300
4.88557	0.00000	1683.67300
4.88940	0.00000	1683.67300
4.89322	0.00000	1676.13600
4.89705	0.00000	1676.13600
4.90087	0.00000	1676.13600
4.90471	0.00000	1666.66600
4.90854	0.00000	1666.66600
4.91237	0.00000	1666.66600
4.91619	0.00000	1666.66600
4.92002	0.00000	1664.06200
4.92384	0.00000	1664.06200
4.92767	0.00000	1664.06200
4.93149	0.00000	1671.40100
4.93532	0.00000	1671.40100
4.93914	0.00000	1671.40100
4.94296	0.00000	1671.40100
4.94679	0.00000	1671.40100
4.95062	0.00000	1671.40100
4.95445	0.00000	1671.40100
4.95827	0.00000	1671.40100
4.96209	0.00000	1671.40100
4.96591	0.00000	1671.40100
4.96974	0.00000	1666.66600
4.97357	0.00000	1666.66600
4.97739	0.00000	1666.66600
4.98122	0.00000	1666.66600
4.98505	0.00000	1659.37500
4.98887	0.00000	1659.37500
4.99269	0.00000	1659.37500
4.99652	0.00000	1666.66600
5.00084	0.00000	1666.66600
5.00471	0.00000	1666.66600
5.00855	0.00000	1683.67300
5.01241	0.00000	1683.67300
5.01626	0.00000	1683.67300
5.02009	0.00000	1683.67300
5.02392	0.00000	1671.40100
5.02775	0.00000	1671.40100
5.03162	0.00000	1671.40100
5.03553	0.00000	1865.71700
5.03938	0.00000	1865.71700
5.04322	0.00000	1865.71700
5.04705	0.00000	1865.71700
5.05088	0.00000	2131.48500
5.05471	0.00000	2131.48500
5.05856	0.00000	2131.48500
5.06244	0.00000	2131.48500
5.06628	0.00000	2365.25200
5.07012	0.00000	2365.25200
5.07396	0.00000	2365.25200
5.07779	0.00000	2365.25200
5.08161	0.00000	2517.97500
5.08545	0.00000	2517.97500
5.08927	0.00000	2517.97500
5.09311	0.00000	2517.97500
5.09694	0.00000	2690.21700
5.10077	0.00000	2690.21700
5.10461	0.00000	2690.21700
5.10844	0.00000	2690.21700
5.11227	0.00000	2836.53800
5.11610	0.00000	2836.53800
5.11993	0.00000	2836.53800
5.12376	0.00000	2836.53800
5.12760	0.00000	2949.21800
5.13144	0.00000	2949.21800
5.13526	0.00000	2949.21800
5.13910	0.00000	2949.21800
5.14297	0.00000	3058.40100
5.14681	0.00000	3058.40100
5.15064	0.00000	3058.40100
5.15448	0.00000	3058.40100
5.15831	0.00000	3152.72100
5.16215	0.00000	3152.72100
5.16599	0.00000	3152.72100
5.16983	0.00000	3152.72100
5.17365	0.00000	3229.16600
5.17744	0.00000	3229.16600
5.18128	0.00000	3229.16600
5.18511	0.00000	3229.16600
5.18894	0.00000	3229.16600
5.19277	0.00000	3314.20900
5.19659	0.00000	3314.20900
5.20042	0.00000	3314.20900
5.20425	0.00000	3314.20900
5.20808	0.00000	3372.09300
5.21191	0.00000	3372.09300
5.21575	0.00000	3372.09300
5.21957	0.00000	3372.09300
5.22340	0.00000	3372.09300
5.22723	0.00000	3431.53600
5.23106	0.00000	3431.53600
5.23489	0.00000	3431.53600
5.23873	0.00000	3431.53600
5.24256	0.00000	3492.36600
5.24639	0.00000	3492.36600
5.25022	0.00000	3492.36600
5.25405	0.00000	3492.36600
5.25789	0.00000	3492.36600
5.26173	0.00000	3531.48400
5.26557	0.00000	3531.48400
5.26940	0.00000	3531.48400
5.27325	0.00000	3531.48400
5.27709	0.00000	3566.72900
5.28092	0.00000	3566.72900
5.28477	0.00000	3566.72900
5.28860	0.00000	3566.72900
5.29243	0.00000	3566.72900
5.29627	0.00000	3597.22200
5.30010	0.00000	3597.22200
5.30393	0.00000	3597.22200
5.30777	0.00000	3597.22200
5.31159	0.00000	3618.05500
5.31542	0.00000	3618.05500
5.31925	0.00000	3618.05500
5.32308	0.00000	3618.05500
5.32692	0.00000	3618.05500
5.33075	0.00000	3643.15200
5.33458	0.00000	3643.15200
5.33841	0.00000	3643.15200
5.34226	0.00000	3643.15200
5.34609	0.00000	3643.15200
5.34991	0.00000	3678.14800
5.35374	0.00000	3678.14800
5.35757	0.00000	3678.14800
5.36140	0.00000	3678.14800
5.36524	0.00000	3712.08600
5.36908	0.00000	3712.08600
5.37292	0.00000	3712.08600
5.37675	0.00000	3712.08600
5.38057	0.00000	3712.08600
5.38440	0.00000	3719.20600
5.38823	0.00000	3719.20600
5.39206	0.00000	3719.20600
5.39589	0.00000	3719.20600
5.39972	0.00000	3719.20600
5.40355	0.00000	3726.22300
5.40738	0.00000	3726.22300
5.41121	0.00000	3726.22300
5.41503	0.00000	3726.22300
5.41886	0.00000	3726.22300
5.42270	0.00000	3743.20600
5.42653	0.00000	3743.20600
5.43035	0.00000	3743.20600
5.43418	0.00000	3743.20600
5.43800	0.00000	3750.00000
5.44184	0.00000	3750.00000
5.44566	0.00000	3750.00000
5.44949	0.00000	3750.00000
5.45333	0.00000	3750.00000
5.45715	0.00000	3763.48900
5.46098	0.00000	3763.48900
5.46481	0.00000	3763.48900
5.46864	0.00000	3763.48900
5.47247	0.00000	3763.48900
5.47631	0.00000	3773.60600
5.48014	0.00000	3773.60600
5.48398	0.00000	3773.60600
5.48781	0.00000	3773.60600
5.49164	0.00000	3773.60600
5.49547	0.00000	3807.74400
5.49930	0.00000	3807.74400
5.50314	0.00000	3807.74400
5.50697	0.00000	3807.74400
5.51080	0.00000	3804.34800
5.51464	0.00000	3804.34800
5.51848	0.00000	3804.34800
5.52231	0.00000	3804.34800
5.52614	0.00000	3804.34800
5.52998	0.00000	3817.44600
5.53381	0.00000	3817.44600
5.53765	0.00000	3817.44600
5.54145	0.00000	3817.44600
5.54528	0.00000	3817.44600
5.54911	0.00000	3827.56200
5.55294	0.00000	3827.56200
5.55677	0.00000	3827.56200
5.56060	0.00000	3827.56200
5.56443	0.00000	3827.56200
5.56826	0.00000	3820.81800
5.57210	0.00000	3820.81800
5.57594	0.00000	3820.81800
5.57978	0.00000	3820.81800
5.58361	0.00000	3834.91800
5.58744	0.00000	3834.91800
5.59127	0.00000	3834.91800
5.59511	0.00000	3834.91800
5.59893	0.00000	3834.91800
5.60277	0.00000	3810.26700
5.60661	0.00000	3810.26700
5.61044	0.00000	3810.26700
5.61427	0.00000	3810.26700
5.61811	0.00000	3810.26700
5.62194	0.00000	3820.31200
5.62578	0.00000	3820.31200
5.62961	0.00000	3820.31200
5.63344	0.00000	3820.31200
5.63727	0.00000	3820.31200
5.64110	0.00000	3827.00800
5.64494	0.00000	3827.00800
5.64877	0.00000	3827.00800
5.65261	0.00000	3827.00800
5.65645	0.00000	3830.93500
5.66028	0.00000	3830.93500
5.66411	0.00000	3830.93500
5.66794	0.00000	3830.93500
5.67177	0.00000	3830.93500
5.67559	0.00000	3841.05200
5.67943	0.00000	3841.05200
5.68327	0.00000	3841.05200
5.68712	0.00000	3841.05200
5.69095	0.00000	3841.05200
5.69478	0.00000	3833.70500
5.69860	0.00000	3833.70500
5.70243	0.00000	3833.70500
5.70627	0.00000	3833.70500
5.71010	0.00000	3833.70500
5.71393	0.00000	3833.70500
5.71776	0.00000	3833.70500
5.72159	0.00000	3833.70500
5.72543	0.00000	3833.70500
5.72926	0.00000	3833.70500
5.73310	0.00000	3847.09800
5.73693	0.00000	3847.09800
5.74077	0.00000	3847.09800
5.74459	0.00000	3847.09800
5.74842	0.00000	3833.70500
5.75224	0.00000	3833.70500
5.75607	0.00000	3833.70500
5.75990	0.00000	3833.70500
5.76374	0.00000	3833.70500
5.76758	0.00000	3843.75000
5.77141	0.00000	3843.75000
5.77524	0.00000	3843.75000
5.77908	0.00000	3843.75000
5.78292	0.00000	3843.75000
5.78675	0.00000	3833.11100
5.79059	0.00000	3833.11100
5.79441	0.00000	3833.11100
5.79825	0.00000	3833.11100
5.80208	0.00000	3833.11100
5.80590	0.00000	3826.46200
5.80973	0.00000	3826.46200
5.81357	0.00000	3826.46200
5.81741	0.00000	3826.46200
5.82125	0.00000	3826.46200
5.82508	0.00000	3840.40100
5.82892	0.00000	3840.40100
5.83276	0.00000	3840.40100
5.83661	0.00000	3840.40100
5.84044	0.00000	3841.05200
5.84428	0.00000	3841.05200
5.84811	0.00000	3841.05200
5.85193	0.00000	3841.05200
5.85576	0.00000	3841.05200
5.85960	0.00000	3809.84000
5.86343	0.00000	3809.84000
5.86727	0.00000	3809.84000
5.87110	0.00000	3809.84000
5.87493	0.00000	3809.84000
5.87876	0.00000	3857.14300
5.88259	0.00000	3857.14300
5.88642	0.00000	3857.14300
5.89025	0.00000	3857.14300
5.89408	0.00000	3857.14300
5.89794	0.00000	3857.14300
5.90178	0.00000	3857.14300
5.90563	0.00000	3857.14300
5.90945	0.00000	3857.14300
5.91329	0.00000	3857.14300
5.91713	0.00000	3850.44600
5.92096	0.00000	3850.44600
5.92480	0.00000	3850.44600
5.92864	0.00000	3850.44600
5.93248	0.00000	3847.79700
5.93631	0.00000	3847.79700
5.94015	0.00000	3847.79700
5.94398	0.00000	3847.79700
5.94780	0.00000	3847.79700
5.95163	0.00000	3816.48900
5.95546	0.00000	3816.48900
5.95929	0.00000	3816.48900
5.96313	0.00000	3816.48900
5.96696	0.00000	3816.48900
5.97080	0.00000	3850.44600
5.97463	0.00000	3850.44600
5.97846	0.00000	3850.44600
5.98230	0.00000	3850.44600
5.98614	0.00000	3850.44600
5.98996	0.00000	3853.79400
5.99380	0.00000	3853.79400
5.99764	0.00000	3853.79400
6.00144	0.00000	3853.79400
6.00528	0.00000	3853.79400
6.00911	0.00000	3853.79400
6.01297	0.00000	3853.79400
6.01681	0.00000	3853.79400
6.02066	0.00000	3853.79400
6.02450	0.00000	3857.91300
6.02835	0.00000	3857.91300
6.03219	0.00000	3857.91300
6.03602	0.00000	3857.91300
6.03986	0.00000	3857.91300
6.04368	0.00000	3816.48900
6.04752	0.00000	3816.48900
6.05135	0.00000	3816.48900
6.05518	0.00000	3816.48900
6.05904	0.00000	3816.48900
6.06290	0.00000	3819.81400
6.06675	0.00000	3819.81400
6.07060	0.00000	3819.81400
6.07444	0.00000	3819.81400
6.07827	0.00000	3819.81400
6.08211	0.00000	3850.44600
6.08594	0.00000	3850.44600
6.08978	0.00000	3850.44600
6.09362	0.00000	3850.44600
6.09745	0.00000	3850.44600
6.10127	0.00000	3837.05300
6.10510	0.00000	3837.05300
6.10893	0.00000	3837.05300
6.11279	0.00000	3837.05300
6.11664	0.00000	3830.35700
6.12050	0.00000	3830.35700
6.12434	0.00000	3830.35700
6.12819	0.00000	3830.35700
6.13203	0.00000	3830.35700
6.13586	0.00000	3823.13800
6.13971	0.00000	3823.13800
6.14358	0.00000	3823.13800
6.14743	0.00000	3823.13800
6.15128	0.00000	3823.13800
6.15511	0.00000	3816.48900
6.15895	0.00000	3816.48900
6.16280	0.00000	3816.48900
6.16670	0.00000	3816.48900
6.17056	0.00000	3816.48900
6.17441	0.00000	3850.44600
6.17824	0.00000	3850.44600
6.18208	0.00000	3850.44600
6.18591	0.00000	3850.44600
6.18976	0.00000	3851.16900
6.19360	0.00000	3851.16900
6.19744	0.00000	3851.16900
6.20129	0.00000	3851.16900
6.20513	0.00000	3851.16900
6.20896	0.00000	3843.75000
6.21279	0.00000	3843.75000
6.21662	0.00000	3843.75000
6.22046	0.00000	3843.75000
6.22429	0.00000	3843.75000
6.22813	0.00000	3823.13800
6.23196	0.00000	3823.13800
6.23580	0.00000	3823.13800
6.23964	0.00000	3823.13800
6.24347	0.00000	3823.13800
6.24732	0.00000	3847.09800
6.25116	0.00000	3847.09800
6.25503	0.00000	3847.09800
6.25888	0.00000	3847.09800
6.26272	0.00000	3847.09800
6.26655	0.00000	3840.40100
6.27039	0.00000	3840.40100
6.27423	0.00000	3840.40100
6.27807	0.00000	3840.40100
6.28191	0.00000	3823.66000
6.28576	0.00000	3823.66000
6.28960	0.00000	3823.66000
6.29343	0.00000	3823.66000
6.29729	0.00000	3823.66000
6.30112	0.00000	3826.46200
6.30496	0.00000	3826.46200
6.30885	0.00000	3826.46200
6.31271	0.00000	3826.46200
6.31655	0.00000	3826.46200
6.32039	0.00000	3823.13800
6.32422	0.00000	3823.13800
6.32805	0.00000	3823.13800
6.33189	0.00000	3823.13800
6.33572	0.00000	3823.13800
6.33957	0.00000	3850.44600
6.34341	0.00000	3850.44600
6.34724	0.00000	3850.44600
6.35108	0.00000	3850.44600
6.35490	0.00000	3854.54100
6.35873	0.00000	3854.54100
6.36257	0.00000	3854.54100
6.36639	0.00000	3854.54100
6.37023	0.00000	3854.54100
6.37406	0.00000	3833.70500
6.37789	0.00000	3833.70500
6.38173	0.00000	3833.70500
6.38556	0.00000	3833.70500
6.38940	0.00000	3833.70500
6.39324	0.00000	3829.78700
6.39707	0.00000	3829.78700
6.40091	0.00000	3829.78700
6.40475	0.00000	3829.78700
6.40858	0.00000	3829.78700
6.41241	0.00000	3823.13800
6.41624	0.00000	3823.13800
6.42007	0.00000	3823.13800
6.42391	0.00000	3823.13800
6.42775	0.00000	3823.13800
6.43159	0.00000	3826.46200
6.43543	0.00000	3826.46200
6.43926	0.00000	3826.46200
6.44309	0.00000	3826.46200
6.44692	0.00000	3851.16900
6.45076	0.00000	3851.16900
6.45459	0.00000	3851.16900
6.45843	0.00000	3851.16900
6.46225	0.00000	3851.16900
6.46608	0.00000	3840.40100
6.46992	0.00000	3840.40100
6.47376	0.00000	3840.40100
6.47759	0.00000	3840.40100
6.48143	0.00000	3840.40100
6.48527	0.00000	3823.13800
6.48911	0.00000	3823.13800
6.49294	0.00000	3823.13800
6.49678	0.00000	3823.13800
6.50062	0.00000	3823.13800
6.50444	0.00000	3823.13800
6.50828	0.00000	3823.13800
6.51211	0.00000	3823.13800
6.51595	0.00000	3823.13800
6.51978	0.00000	3823.13800
6.52362	0.00000	3847.09800
6.52745	0.00000	3847.09800
6.53129	0.00000	3847.09800
6.53511	0.00000	3847.09800
6.53894	0.00000	3851.16900
6.54278	0.00000	3851.16900
6.54661	0.00000	3851.16900
6.55043	0.00000	3851.16900
6.55427	0.00000	3851.16900
6.55810	0.00000	3840.40100
6.56194	0.00000	3840.40100
6.56576	0.00000	3840.40100
6.56960	0.00000	3840.40100
6.57344	0.00000	3840.40100
6.57728	0.00000	3823.13800
6.58110	0.00000	3823.13800
6.58494	0.00000	3823.13800
6.58878	0.00000	3823.13800
6.59262	0.00000	3823.13800
6.59645	0.00000	3823.13800
6.60028	0.00000	3823.13800
6.60411	0.00000	3823.13800
6.60795	0.00000	3823.13800
6.61178	0.00000	3823.13800
6.61561	0.00000	3847.09800
6.61945	0.00000	3847.09800
6.62328	0.00000	3847.09800
6.62712	0.00000	3847.09800
6.63094	0.00000	3851.16900
6.63479	0.00000	3851.16900
6.63862	0.00000	3851.16900
6.64245	0.00000	3851.16900
6.64628	0.00000	3851.16900
6.65010	0.00000	3840.40100
6.65393	0.00000	3840.40100
6.65777	0.00000	3840.40100
6.66161	0.00000	3840.40100
6.66545	0.00000	3840.40100
6.66930	0.00000	3819.81400
6.67314	0.00000	3819.81400
6.67698	0.00000	3819.81400
6.68081	0.00000	3819.81400
6.68464	0.00000	3819.81400
6.68848	0.00000	3850.44600
6.69231	0.00000	3850.44600
6.69613	0.00000	3850.44600
6.69996	0.00000	3850.44600
6.70379	0.00000	3850.44600
6.70762	0.00000	3840.40100
6.71146	0.00000	3840.40100
6.71530	0.00000	3840.40100
6.71913	0.00000	3840.40100
6.72296	0.00000	3823.66000
6.72679	0.00000	3823.66000
6.73063	0.00000	3823.66000
6.73447	0.00000	3823.66000
6.73829	0.00000	3823.66000
6.74211	0.00000	3823.13800
6.74594	0.00000	3823.13800
6.74978	0.00000	3823.13800
6.75361	0.00000	3823.13800
6.75744	0.00000	3823.13800
6.76127	0.00000	3850.44600
6.76510	0.00000	3850.44600
6.76894	0.00000	3850.44600
6.77277	0.00000	3850.44600
6.77660	0.00000	3850.44600
6.78045	0.00000	3853.79400
6.78427	0.00000	3853.79400
6.78810	0.00000	3853.79400
6.79193	0.00000	3853.79400
6.79577	0.00000	3853.79400
6.79959	0.00000	3843.75000
6.80342	0.00000	3843.75000
6.80726	0.00000	3843.75000
6.81109	0.00000	3843.75000
6.81493	0.00000	3827.00800
6.81876	0.00000	3827.00800
6.82259	0.00000	3827.00800
6.82644	0.00000	3827.00800
6.83026	0.00000	3827.00800
6.83410	0.00000	3819.81400
6.83793	0.00000	3819.81400
6.84176	0.00000	3819.81400
6.84560	0.00000	3819.81400
6.84943	0.00000	3819.81400
6.85326	0.00000	3823.13800
6.85710	0.00000	3823.13800
6.86093	0.00000	3823.13800
6.86476	0.00000	3823.13800
6.86860	0.00000	3823.13800
6.87243	0.00000	3853.79400
6.87627	0.00000	3853.79400
6.88010	0.00000	3853.79400
6.88392	0.00000	3853.79400
6.88775	0.00000	3853.79400
6.89157	0.00000	3830.35700
6.89540	0.00000	3830.35700
6.89924	0.00000	3830.35700
6.90308	0.00000	3830.35700
6.90691	0.00000	3823.66000
6.91075	0.00000	3823.66000
6.91461	0.00000	3823.66000
6.91844	0.00000	3823.66000
6.92228	0.00000	3823.66000
6.92612	0.00000	3847.09800
6.92994	0.00000	3847.09800
6.93377	0.00000	3847.09800
6.93761	0.00000	3847.09800
6.94144	0.00000	3847.09800
6.94528	0.00000	3853.79400
6.94911	0.00000	3853.79400
6.95294	0.00000	3853.79400
6.95677	0.00000	3853.79400
6.96061	0.00000	3853.79400
6.96444	0.00000	3847.09800
6.96829	0.00000	3847.09800
6.97211	0.00000	3847.09800
6.97595	0.00000	3847.09800
6.97977	0.00000	3851.16900
6.98360	0.00000	3851.16900
6.98743	0.00000	3851.16900
6.99126	0.00000	3851.16900
6.99511	0.00000	3851.16900
6.99893	0.00000	3854.54100
7.00277	0.00000	3854.54100
7.00660	0.00000	3854.54100
7.01044	0.00000	3854.54100
7.01429	0.00000	3854.54100
7.01813	0.00000	3853.79400
7.02197	0.00000	3853.79400
7.02580	0.00000	3853.79400
7.02963	0.00000	3853.79400
7.03346	0.00000	3853.79400
7.03737	0.00000	3853.79400
7.04123	0.00000	3853.79400
7.04506	0.00000	3853.79400
7.04890	0.00000	3853.79400
7.05273	0.00000	3853.79400
7.05657	0.00000	3850.44600
7.06041	0.00000	3850.44600
7.06424	0.00000	3850.44600
7.06807	0.00000	3850.44600
7.07191	0.00000	3823.66000
7.07574	0.00000	3823.66000
7.07957	0.00000	3823.66000
7.08340	0.00000	3823.66000
7.08724	0.00000	3823.66000
7.09108	0.00000	3819.81400
7.09491	0.00000	3819.81400
7.09874	0.00000	3819.81400
7.10258	0.00000	3819.81400
7.10640	0.00000	3819.81400
7.11024	0.00000	3853.79400
7.11407	0.00000	3853.79400
7.11790	0.00000	3853.79400
7.12172	0.00000	3853.79400
7.12557	0.00000	3853.79400
7.12944	0.00000	3850.44600
7.13329	0.00000	3850.44600
7.13712	0.00000	3850.44600
7.14096	0.00000	3850.44600
7.14481	0.00000	3850.44600
7.14864	0.00000	3840.40100
7.15248	0.00000	3840.40100
7.15632	0.00000	3840.40100
7.16015	0.00000	3840.40100
7.16399	0.00000	3823.66000
7.16783	0.00000	3823.66000
7.17165	0.00000	3823.66000
7.17549	0.00000	3823.66000
7.17932	0.00000	3823.66000
7.18316	0.00000	3826.46200
7.18699	0.00000	3826.46200
7.19083	0.00000	3826.46200
7.19466	0.00000	3826.46200
7.19850	0.00000	3826.46200
7.20233	0.00000	3853.79400
7.20617	0.00000	3853.79400
7.20999	0.00000	3853.79400
7.21382	0.00000	3853.79400
7.21764	0.00000	3853.79400
7.22145	0.00000	3847.09800
7.22528	0.00000	3847.09800
7.22912	0.00000	3847.09800
7.23296	0.00000	3847.09800
7.23679	0.00000	3847.09800
7.24062	0.00000	3837.05300
7.24446	0.00000	3837.05300
7.24830	0.00000	3837.05300
7.25213	0.00000	3837.05300
7.25596	0.00000	3827.00800
7.25979	0.00000	3827.00800
7.26362	0.00000	3827.00800
7.26745	0.00000	3827.00800
7.27129	0.00000	3827.00800
7.27512	0.00000	3823.13800
7.27896	0.00000	3823.13800
7.28279	0.00000	3823.13800
7.28663	0.00000	3823.13800
7.29046	0.00000	3823.13800
7.29430	0.00000	3850.44600
7.29814	0.00000	3850.44600
7.30197	0.00000	3850.44600
7.30580	0.00000	3850.44600
7.30962	0.00000	3850.44600
7.31344	0.00000	3850.44600
7.31727	0.00000	3850.44600
7.32110	0.00000	3850.44600
7.32494	0.00000	3850.44600
7.32877	0.00000	3850.44600
7.33260	0.00000	3840.40100
7.33644	0.00000	3840.40100
7.34027	0.00000	3840.40100
7.34411	0.00000	3840.40100
7.34793	0.00000	3823.66000
7.35177	0.00000	3823.66000
7.35561	0.00000	3823.66000
7.35943	0.00000	3823.66000
7.36327	0.00000	3823.66000
7.36710	0.00000	3850.44600
7.37094	0.00000	3850.44600
7.37478	0.00000	3850.44600
7.37861	0.00000	3850.44600
7.38245	0.00000	3850.44600
7.38629	0.00000	3850.44600
7.39012	0.00000	3850.44600
7.39395	0.00000	3850.44600
7.39778	0.00000	3850.44600
7.40160	0.00000	3850.44600
7.40543	0.00000	3853.79400
7.40928	0.00000	3853.79400
7.41311	0.00000	3853.79400
7.41695	0.00000	3853.79400
7.42079	0.00000	3827.00800
7.42461	0.00000	3827.00800
7.42845	0.00000	3827.00800
7.43229	0.00000	3827.00800
7.43612	0.00000	3827.00800
7.43995	0.00000	3851.16900
7.44378	0.00000	3851.16900
7.44761	0.00000	3851.16900
7.45143	0.00000	3851.16900
7.45526	0.00000	3851.16900
7.45908	0.00000	3857.14300
7.46292	0.00000	3857.14300
7.46676	0.00000	3857.14300
7.47059	0.00000	3857.14300
7.47442	0.00000	3857.14300
7.47826	0.00000	3853.79400
7.48209	0.00000	3853.79400
7.48593	0.00000	3853.79400
7.48976	0.00000	3853.79400
7.49359	0.00000	3853.79400
7.49742	0.00000	3847.09800
7.50126	0.00000	3847.09800
7.50509	0.00000	3847.09800
7.50893	0.00000	3847.09800
7.51277	0.00000	3827.00800
7.51659	0.00000	3827.00800
7.52042	0.00000	3827.00800
7.52426	0.00000	3827.00800
7.52809	0.00000	3827.00800
7.53193	0.00000	3861.28600
7.53575	0.00000	3861.28600
7.53959	0.00000	3861.28600
7.54341	0.00000	3861.28600
7.54724	0.00000	3861.28600
7.55109	0.00000	3850.44600
7.55495	0.00000	3850.44600
7.55879	0.00000	3850.44600
7.56263	0.00000	3850.44600
7.56647	0.00000	3850.44600
7.57031	0.00000	3847.09800
7.57415	0.00000	3847.09800
7.57798	0.00000	3847.09800
7.58181	0.00000	3847.09800
7.58564	0.00000	3847.09800
7.58944	0.00000	3819.81400
7.59327	0.00000	3819.81400
7.59710	0.00000	3819.81400
7.60094	0.00000	3819.81400
7.60478	0.00000	3847.79700
7.60862	0.00000	3847.79700
7.61245	0.00000	3847.79700
7.61629	0.00000	3847.79700
7.62012	0.00000	3847.79700
7.62395	0.00000	3833.70500
7.62778	0.00000	3833.70500
7.63160	0.00000	3833.70500
7.63543	0.00000	3833.70500
7.63927	0.00000	3833.70500
7.64309	0.00000	3826.46200
7.64693	0.00000	3826.46200
7.65077	0.00000	3826.46200
7.65461	0.00000	3826.46200
7.65843	0.00000	3826.46200
7.66226	0.00000	3823.13800
7.66610	0.00000	3823.13800
7.66993	0.00000	3823.13800
7.67376	0.00000	3823.13800
7.67759	0.00000	3823.13800
7.68143	0.00000	3823.13800
7.68527	0.00000	3823.13800
7.68909	0.00000	3823.13800
7.69292	0.00000	3823.13800
7.69676	0.00000	3854.54100
7.70060	0.00000	3854.54100
7.70443	0.00000	3854.54100
7.70826	0.00000	3854.54100
7.71210	0.00000	3854.54100
7.71594	0.00000	3843.75000
7.71977	0.00000	3843.75000
7.72360	0.00000	3843.75000
7.72742	0.00000	3843.75000
7.73125	0.00000	3843.75000
7.73509	0.00000	3850.44600
7.73893	0.00000	3850.44600
7.74276	0.00000	3850.44600
7.74660	0.00000	3850.44600
7.75044	0.00000	3850.44600
7.75427	0.00000	3823.13800
7.75811	0.00000	3823.13800
7.76195	0.00000	3823.13800
7.76578	0.00000	3823.13800
7.76961	0.00000	3823.13800
7.77344	0.00000	3819.81400
7.77728	0.00000	3819.81400
7.78111	0.00000	3819.81400
7.78493	0.00000	3819.81400
7.78877	0.00000	3830.35700
7.79261	0.00000	3830.35700
7.79644	0.00000	3830.35700
7.80028	0.00000	3830.35700
7.80410	0.00000	3830.35700
7.80794	0.00000	3850.44600
7.81176	0.00000	3850.44600
7.81560	0.00000	3850.44600
7.81943	0.00000	3850.44600
7.82325	0.00000	3850.44600
7.82708	0.00000	3850.44600
7.83091	0.00000	3850.44600
7.83475	0.00000	3850.44600
7.83859	0.00000	3850.44600
7.84242	0.00000	3850.44600
7.84626	0.00000	3853.79400
7.85009	0.00000	3853.79400
7.85393	0.00000	3853.79400
7.85776	0.00000	3853.79400
7.86159	0.00000	3853.79400
7.86542	0.00000	3819.81400
7.86925	0.00000	3819.81400
7.87308	0.00000	3819.81400
7.87691	0.00000	3819.81400
7.88074	0.00000	3827.00800
7.88458	0.00000	3827.00800
7.88841	0.00000	3827.00800
7.89224	0.00000	3827.00800
7.89608	0.00000	3827.00800
7.89992	0.00000	3847.09800
7.90374	0.00000	3847.09800
7.90757	0.00000	3847.09800
7.91140	0.00000	3847.09800
7.91523	0.00000	3847.09800
7.91905	0.00000	3850.44600
7.92288	0.00000	3850.44600
7.92672	0.00000	3850.44600
7.93055	0.00000	3850.44600
7.93439	0.00000	3850.44600
7.93822	0.00000	3853.79400
7.94206	0.00000	3853.79400
7.94588	0.00000	3853.79400
7.94972	0.00000	3853.79400
7.95356	0.00000	3853.79400
7.95739	0.00000	3816.48900
7.96122	0.00000	3816.48900
7.96504	0.00000	3816.48900
7.96887	0.00000	3816.48900
7.97271	0.00000	3827.00800
7.97654	0.00000	3827.00800
7.98037	0.00000	3827.00800
7.98421	0.00000	3827.00800
7.98804	0.00000	3827.00800
7.99187	0.00000	3850.44600
7.99570	0.00000	3850.44600
7.99953	0.00000	3850.44600
8.00337	0.00000	3850.44600
8.00719	0.00000	3850.44600
8.01102	0.00000	3847.09800
8.01486	0.00000	3847.09800
8.01869	0.00000	3847.09800
8.02253	0.00000	3847.09800
8.02636	0.00000	3847.09800
8.03020	0.00000	3847.09800
8.03403	0.00000	3847.09800
8.03787	0.00000	3847.09800
8.04170	0.00000	3847.09800
8.04553	0.00000	3847.09800
8.04937	0.00000	3837.05300
8.05320	0.00000	3837.05300
8.05703	0.00000	3837.05300
8.06087	0.00000	3837.05300
8.06470	0.00000	3827.00800
8.06853	0.00000	3827.00800
8.07237	0.00000	3827.00800
8.07621	0.00000	3827.00800
8.08004	0.00000	3827.00800
8.08387	0.00000	3853.79400
8.08770	0.00000	3853.79400
8.09154	0.00000	3853.79400
8.09537	0.00000	3853.79400
8.09919	0.00000	3853.79400
8.10302	0.00000	3853.79400
8.10685	0.00000	3853.79400
8.11067	0.00000	3853.79400
8.11451	0.00000	3853.79400
8.11835	0.00000	3853.79400
8.12218	0.00000	3847.09800
8.12602	0.00000	3847.09800
8.12985	0.00000	3847.09800
8.13368	0.00000	3847.09800
8.13751	0.00000	3847.09800
8.14135	0.00000	3833.70500
8.14519	0.00000	3833.70500
8.14902	0.00000	3833.70500
8.15285	0.00000	3833.70500
8.15668	0.00000	3854.54100
8.16052	0.00000	3854.54100
8.16435	0.00000	3854.54100
8.16819	0.00000	3854.54100
8.17202	0.00000	3854.54100
8.17586	0.00000	3850.44600
8.17969	0.00000	3850.44600
8.18352	0.00000	3850.44600
8.18736	0.00000	3850.44600
8.19119	0.00000	3850.44600
8.19502	0.00000	3850.44600
8.19885	0.00000	3850.44600
8.20268	0.00000	3850.44600
8.20651	0.00000	3850.44600
8.21034	0.00000	3850.44600
8.21418	0.00000	3823.13800
8.21802	0.00000	3823.13800
8.22185	0.00000	3823.13800
8.22568	0.00000	3823.13800
8.22951	0.00000	3827.00800
8.23334	0.00000	3827.00800
8.23716	0.00000	3827.00800
8.24099	0.00000	3827.00800
8.24481	0.00000	3827.00800
8.24865	0.00000	3857.91300
8.25249	0.00000	3857.91300
8.25632	0.00000	3857.91300
8.26016	0.00000	3857.91300
8.26399	0.00000	3857.91300
8.26783	0.00000	3850.44600
8.27168	0.00000	3850.44600
8.27550	0.00000	3850.44600
8.27934	0.00000	3850.44600
8.28317	0.00000	3850.44600
8.28700	0.00000	3823.13800
8.29083	0.00000	3823.13800
8.29466	0.00000	3823.13800
8.29849	0.00000	3823.13800
8.30232	0.00000	3823.13800
8.30616	0.00000	3823.13800
8.31000	0.00000	3823.13800
8.31384	0.00000	3823.13800
8.31766	0.00000	3823.13800
8.32150	0.00000	3827.00800
8.32532	0.00000	3827.00800
8.32916	0.00000	3827.00800
8.33307	0.00000	3827.00800
8.33695	0.00000	3827.00800
8.34079	0.00000	3830.35700
8.34462	0.00000	3830.35700
8.34846	0.00000	3830.35700
8.35229	0.00000	3830.35700
8.35613	0.00000	3830.35700
8.35996	0.00000	3853.79400
8.36380	0.00000	3853.79400
8.36763	0.00000	3853.79400
8.37146	0.00000	3853.79400
8.37530	0.00000	3853.79400
8.37914	0.00000	3823.13800
8.38296	0.00000	3823.13800
8.38679	0.00000	3823.13800
8.39062	0.00000	3823.13800
8.39445	0.00000	3823.13800
8.39828	0.00000	3823.13800
8.40212	0.00000	3823.13800
8.40596	0.00000	3823.13800
8.40979	0.00000	3823.13800
8.41362	0.00000	3827.00800
8.41744	0.00000	3827.00800
8.42128	0.00000	3827.00800
8.42511	0.00000	3827.00800
8.42894	0.00000	3827.00800
8.43276	0.00000	3843.75000
8.43659	0.00000	3843.75000
8.44042	0.00000	3843.75000
8.44425	0.00000	3843.75000
8.44809	0.00000	3843.75000
8.45193	0.00000	3850.44600
8.45576	0.00000	3850.44600
8.45960	0.00000	3850.44600
8.46343	0.00000	3850.44600
8.46726	0.00000	3850.44600
8.47111	0.00000	3826.46200
8.47493	0.00000	3826.46200
8.47877	0.00000	3826.46200
8.48259	0.00000	3826.46200
8.48642	0.00000	3826.46200
8.49025	0.00000	3823.13800
8.49408	0.00000	3823.13800
8.49792	0.00000	3823.13800
8.50176	0.00000	3823.13800
8.50559	0.00000	3827.00800
8.50942	0.00000	3827.00800
8.51326	0.00000	3827.00800
8.51710	0.00000	3827.00800
8.52092	0.00000	3827.00800
8.52475	0.00000	3843.75000
8.52858	0.00000	3843.75000
8.53241	0.00000	3843.75000
8.53625	0.00000	3843.75000
8.54008	0.00000	3843.75000
8.54392	0.00000	3847.09800
8.54775	0.00000	3847.09800
8.55158	0.00000	3847.09800
8.55542	0.00000	3847.09800
8.55925	0.00000	3847.09800
8.56308	0.00000	3853.79400
8.56692	0.00000	3853.79400
8.57075	0.00000	3853.79400
8.57457	0.00000	3853.79400
8.57840	0.00000	3853.79400
8.58223	0.00000	3826.46200
8.58606	0.00000	3826.46200
8.58990	0.00000	3826.46200
8.59374	0.00000	3826.46200
8.59757	0.00000	3827.00800
8.60141	0.00000	3827.00800
8.60524	0.00000	3827.00800
8.60907	0.00000	3827.00800
8.61290	0.00000	3827.00800
8.61672	0.00000	3823.13800
8.62055	0.00000	3823.13800
8.62439	0.00000	3823.13800
8.62822	0.00000	3823.13800
8.63206	0.00000	3823.13800
8.63590	0.00000	3850.44600
8.63973	0.00000	3850.44600
8.64357	0.00000	3850.44600
8.64739	0.00000	3850.44600
8.65122	0.00000	3850.44600
8.65505	0.00000	3850.44600
8.65888	0.00000	3850.44600
8.66271	0.00000	3850.44600
8.66653	0.00000	3850.44600
8.67036	0.00000	3850.44600
8.67420	0.00000	3843.75000
8.67803	0.00000	3843.75000
8.68187	0.00000	3843.75000
8.68570	0.00000	3843.75000
8.68954	0.00000	3827.00800
8.69337	0.00000	3827.00800
8.69720	0.00000	3827.00800
8.70103	0.00000	3827.00800
8.70486	0.00000	3827.00800
8.70869	0.00000	3823.13800
8.71252	0.00000	3823.13800
8.71634	0.00000	3823.13800
8.72017	0.00000	3823.13800
8.72401	0.00000	3823.13800
8.72784	0.00000	3850.44600
8.73168	0.00000	3850.44600
8.73551	0.00000	3850.44600
8.73935	0.00000	3850.44600
8.74318	0.00000	3850.44600
8.74701	0.00000	3850.44600
8.75083	0.00000	3850.44600
8.75467	0.00000	3850.44600
8.75850	0.00000	3850.44600
8.76232	0.00000	3850.44600
8.76616	0.00000	3847.09800
8.76999	0.00000	3847.09800
8.77383	0.00000	3847.09800
8.77766	0.00000	3847.09800
8.78150	0.00000	3823.66000
8.78533	0.00000	3823.66000
8.78915	0.00000	3823.66000
8.79299	0.00000	3823.66000
8.79682	0.00000	3823.66000
8.80065	0.00000	3823.13800
8.80450	0.00000	3823.13800
8.80832	0.00000	3823.13800
8.81215	0.00000	3823.13800
8.81599	0.00000	3823.13800
8.81982	0.00000	3850.44600
8.82365	0.00000	3850.44600
8.82749	0.00000	3850.44600
8.83133	0.00000	3850.44600
8.83516	0.00000	3850.44600
8.83899	0.00000	3850.44600
8.84282	0.00000	3850.44600
8.84665	0.00000	3850.44600
8.85048	0.00000	3850.44600
8.85430	0.00000	3850.44600
8.85813	0.00000	3850.44600
8.86196	0.00000	3850.44600
8.86580	0.00000	3850.44600
8.86962	0.00000	3850.44600
8.87344	0.00000	3823.66000
8.87728	0.00000	3823.66000
8.88111	0.00000	3823.66000
8.88494	0.00000	3823.66000
8.88877	0.00000	3823.66000
8.89259	0.00000	3819.81400
8.89642	0.00000	3819.81400
8.90025	0.00000	3819.81400
8.90408	0.00000	3819.81400
8.90792	0.00000	3819.81400
8.91176	0.00000	3823.13800
8.91559	0.00000	3823.13800
8.91943	0.00000	3823.13800
8.92326	0.00000	3823.13800
8.92709	0.00000	3823.13800
8.93092	0.00000	3853.79400
8.93475	0.00000	3853.79400
8.93858	0.00000	3853.79400
8.94241	0.00000	3853.79400
8.94625	0.00000	3853.79400
8.95008	0.00000	3847.09800
8.95391	0.00000	3847.09800
8.95774	0.00000	3847.09800
8.96158	0.00000	3847.09800
8.96541	0.00000	3823.66000
8.96926	0.00000	3823.66000
8.97308	0.00000	3823.66000
8.97691	0.00000	3823.66000
8.98074	0.00000	3823.66000
8.98456	0.00000	3823.13800
8.98838	0.00000	3823.13800
8.99222	0.00000	3823.13800
8.99605	0.00000	3823.13800
8.99989	0.00000	3823.13800
9.00372	0.00000	3823.13800
9.00756	0.00000	3823.13800
9.01139	0.00000	3823.13800
9.01523	0.00000	3823.13800
9.01906	0.00000	3823.13800
9.02289	0.00000	3826.46200
9.02672	0.00000	3826.46200
9.03054	0.00000	3826.46200
9.03437	0.00000	3826.46200
9.03820	0.00000	3826.46200
9.04204	0.00000	3837.05300
9.04586	0.00000	3837.05300
9.04970	0.00000	3837.05300
9.05353	0.00000	3837.05300
9.05737	0.00000	3847.79700
9.06121	0.00000	3847.79700
9.06503	0.00000	3847.79700
9.06888	0.00000	3847.79700
9.07270	0.00000	3847.79700
9.07654	0.00000	3819.81400
9.08036	0.00000	3819.81400
9.08420	0.00000	3819.81400
9.08803	0.00000	3819.81400
9.09185	0.00000	3819.81400
9.09569	0.00000	3826.46200
9.09952	0.00000	3826.46200
9.10336	0.00000	3826.46200
9.10719	0.00000	3826.46200
9.11103	0.00000	3826.46200
9.11486	0.00000	3850.44600
9.11869	0.00000	3850.44600
9.12251	0.00000	3850.44600
9.12634	0.00000	3850.44600
9.13017	0.00000	3850.44600
9.13400	0.00000	3830.35700
9.13783	0.00000	3830.35700
9.14167	0.00000	3830.35700
9.14550	0.00000	3830.35700
9.14934	0.00000	3827.00800
9.15317	0.00000	3827.00800
9.15700	0.00000	3827.00800
9.16083	0.00000	3827.00800
9.16465	0.00000	3827.00800
9.16848	0.00000	3823.13800
9.17231	0.00000	3823.13800
9.17613	0.00000	3823.13800
9.17996	0.00000	3823.13800
9.18380	0.00000	3823.13800
9.18764	0.00000	3853.79400
9.19148	0.00000	3853.79400
9.19531	0.00000	3853.79400
9.19914	0.00000	3853.79400
9.20298	0.00000	3853.79400
9.20681	0.00000	3853.79400
9.21064	0.00000	3853.79400
9.21447	0.00000	3853.79400
9.21830	0.00000	3853.79400
9.22212	0.00000	3853.79400
9.22596	0.00000	3833.70500
9.22980	0.00000	3833.70500
9.23364	0.00000	3833.70500
9.23744	0.00000	3833.70500
9.24127	0.00000	3830.35700
9.24510	0.00000	3830.35700
9.24894	0.00000	3830.35700
9.25277	0.00000	3830.35700
9.25660	0.00000	3830.35700
9.26044	0.00000	3826.46200
9.26426	0.00000	3826.46200
9.26810	0.00000	3826.46200
9.27194	0.00000	3826.46200
9.27577	0.00000	3826.46200
9.27962	0.00000	3826.46200
9.28346	0.00000	3826.46200
9.28729	0.00000	3826.46200
9.29113	0.00000	3826.46200
9.29496	0.00000	3826.46200
9.29880	0.00000	3850.44600
9.30263	0.00000	3850.44600
9.30646	0.00000	3850.44600
9.31028	0.00000	3850.44600
9.31411	0.00000	3854.54100
9.31793	0.00000	3854.54100
9.32176	0.00000	3854.54100
9.32561	0.00000	3854.54100
9.32945	0.00000	3854.54100
9.33328	0.00000	3830.35700
9.33712	0.00000	3830.35700
9.34095	0.00000	3830.35700
9.34478	0.00000	3830.35700
9.34862	0.00000	3830.35700
9.35245	0.00000	3826.46200
9.35628	0.00000	3826.46200
9.36012	0.00000	3826.46200
9.36394	0.00000	3826.46200
9.36778	0.00000	3826.46200
9.37162	0.00000	3843.75000
9.37546	0.00000	3843.75000
9.37929	0.00000	3843.75000
9.38312	0.00000	3843.75000
9.38695	0.00000	3843.75000
9.39079	0.00000	3853.79400
9.39463	0.00000	3853.79400
9.39846	0.00000	3853.79400
9.40229	0.00000	3853.79400
9.40611	0.00000	3851.16900
9.40995	0.00000	3851.16900
9.41377	0.00000	3851.16900
9.41761	0.00000	3851.16900
9.42145	0.00000	3851.16900
9.42529	0.00000	3833.70500
9.42915	0.00000	3833.70500
9.43298	0.00000	3833.70500
9.43682	0.00000	3833.70500
9.44065	0.00000	3833.70500
9.44448	0.00000	3847.09800
9.44831	0.00000	3847.09800
9.45213	0.00000	3847.09800
9.45596	0.00000	3847.09800
9.45977	0.00000	3847.09800
9.46359	0.00000	3850.44600
9.46742	0.00000	3850.44600
9.47123	0.00000	3850.44600
9.47505	0.00000	3850.44600
9.47887	0.00000	3850.44600
9.48268	0.00000	3850.44600
9.48650	0.00000	3850.44600
9.49032	0.00000	3850.44600
9.49413	0.00000	3850.44600
9.49795	0.00000	3823.66000
9.50176	0.00000	3823.66000
9.50558	0.00000	3823.66000
9.50939	0.00000	3823.66000
9.51321	0.00000	3823.66000
9.51703	0.00000	3854.54100
9.52086	0.00000	3854.54100
9.52468	0.00000	3854.54100
9.52850	0.00000	3854.54100
9.53231	0.00000	3854.54100
9.53613	0.00000	3853.79400
9.53995	0.00000	3853.79400
9.54377	0.00000	3853.79400
9.54759	0.00000	3853.79400
9.55143	0.00000	3853.79400
9.55526	0.00000	3857.14300
9.55909	0.00000	3857.14300
9.56293	0.00000	3857.14300
9.56676	0.00000	3857.14300
9.57060	0.00000	3857.14300
9.57443	0.00000	3826.46200
9.57826	0.00000	3826.46200
9.58209	0.00000	3826.46200
9.58593	0.00000	3826.46200
9.58977	0.00000	3823.66000
9.59359	0.00000	3823.66000
9.59742	0.00000	3823.66000
9.60128	0.00000	3823.66000
9.60510	0.00000	3823.66000
9.60893	0.00000	3851.16900
9.61276	0.00000	3851.16900
9.61659	0.00000	3851.16900
9.62042	0.00000	3851.16900
9.62425	0.00000	3851.16900
9.62808	0.00000	3857.14300
9.63191	0.00000	3857.14300
9.63575	0.00000	3857.14300
9.63959	0.00000	3857.14300
9.64342	0.00000	3857.14300
9.64726	0.00000	3829.78700
9.65109	0.00000	3829.78700
9.65492	0.00000	3829.78700
9.65876	0.00000	3829.78700
9.66259	0.00000	3829.78700
9.66641	0.00000	3826.46200
9.67024	0.00000	3826.46200
9.67408	0.00000	3826.46200
9.67791	0.00000	3826.46200
9.68175	0.00000	3823.66000
9.68557	0.00000	3823.66000
9.68941	0.00000	3823.66000
9.69324	0.00000	3823.66000
9.69707	0.00000	3823.66000
9.70090	0.00000	3857.91300
9.70472	0.00000	3857.91300
9.70887	0.00000	3857.91300
9.71274	0.00000	3857.91300
9.71658	0.00000	3857.91300
9.72042	0.00000	3853.79400
9.72425	0.00000	3853.79400
9.72809	0.00000	3853.79400
9.73190	0.00000	3853.79400
9.73574	0.00000	3853.79400
9.73956	0.00000	3823.13800
9.74340	0.00000	3823.13800
9.74724	0.00000	3823.13800
9.75108	0.00000	3823.13800
9.75491	0.00000	3823.13800
9.75874	0.00000	3843.75000
9.76257	0.00000	3843.75000
9.76641	0.00000	3843.75000
9.77025	0.00000	3843.75000
9.77408	0.00000	3847.79700
9.77790	0.00000	3847.79700
9.78174	0.00000	3847.79700
9.78558	0.00000	3847.79700
9.78941	0.00000	3847.79700
9.79326	0.00000	3850.44600
9.79710	0.00000	3850.44600
9.80094	0.00000	3850.44600
9.80478	0.00000	3850.44600
9.80861	0.00000	3850.44600
9.81243	0.00000	3850.44600
9.81626	0.00000	3850.44600
9.82008	0.00000	3850.44600
9.82390	0.00000	3850.44600
9.82773	0.00000	3850.44600
9.83157	0.00000	3819.81400
9.83540	0.00000	3819.81400
9.83924	0.00000	3819.81400
9.84307	0.00000	3819.81400
9.84691	0.00000	3819.81400
9.85074	0.00000	3837.05300
9.85457	0.00000	3837.05300
9.85841	0.00000	3837.05300
9.86225	0.00000	3837.05300
9.86608	0.00000	3854.54100
9.86992	0.00000	3854.54100
9.87374	0.00000	3854.54100
9.87758	0.00000	3854.54100
9.88141	0.00000	3854.54100
9.88524	0.00000	3853.79400
9.88907	0.00000	3853.79400
9.89289	0.00000	3853.79400
9.89673	0.00000	3853.79400
9.90056	0.00000	3853.79400
9.90440	0.00000	3823.13800
9.90823	0.00000	3823.13800
9.91207	0.00000	3823.13800
9.91590	0.00000	3823.13800
9.91973	0.00000	3823.13800
9.92357	0.00000	3823.13800
9.92740	0.00000	3823.13800
9.93123	0.00000	3823.13800
9.93507	0.00000	3823.13800
9.93890	0.00000	3823.13800
9.94273	0.00000	3833.70500
9.94656	0.00000	3833.70500
9.95040	0.00000	3833.70500
9.95423	0.00000	3833.70500
9.95808	0.00000	3854.54100
9.96191	0.00000	3854.54100
9.96574	0.00000	3854.54100
9.96958	0.00000	3854.54100
9.97341	0.00000	3854.54100
9.97725	0.00000	3853.79400
9.98109	0.00000	3853.79400
9.98492	0.00000	3853.79400
9.98875	0.00000	3853.79400
9.99258	0.00000	3853.79400
9.99640	0.00000	3826.46200
