Time (s)   Thrust (N)   RPM
0.00029	0.00000	4018.31800
0.00418	0.00000	4027.28800
0.00802	0.00000	4027.28800
0.01186	0.00000	4027.28800
0.01569	0.00000	4027.28800
0.01952	0.00000	4027.28800
0.02335	0.00000	3981.11900
0.02729	0.00000	3981.11900
0.03114	0.00000	3981.11900
0.03498	0.00000	3981.11900
0.03881	0.00000	3981.11900
0.04263	0.00000	3806.51500
0.04645	0.00000	3806.51500
0.05028	0.00000	3806.51500
0.05410	0.00000	3806.51500
0.05793	0.00000	3694.44400
0.06176	0.00000	3694.44400
0.06555	0.00000	3694.44400
0.06939	0.00000	3694.44400
0.07321	0.00000	3694.44400
0.07703	0.00000	3545.58200
0.08085	0.00000	3545.58200
0.08474	0.00000	3545.58200
0.08859	0.00000	3545.58200
0.09244	0.00000	3418.26900
0.09628	0.00000	3418.26900
0.10010	0.00000	3418.26900
0.10396	0.00000	3418.26900
0.10779	0.00000	3418.26900
0.11163	0.00000	3310.54700
0.11546	0.00000	3310.54700
0.11929	0.00000	3310.54700
0.12312	0.00000	3310.54700
0.12696	0.00000	3225.00000
0.13078	0.00000	3225.00000
0.13461	0.00000	3225.00000
0.13843	0.00000	3225.00000
0.14225	0.00000	3140.24400
0.14608	0.00000	3140.24400
0.14990	0.00000	3140.24400
0.15373	0.00000	3140.24400
0.15755	0.00000	3140.24400
0.16137	0.00000	3046.87500
0.16521	0.00000	3046.87500
0.16903	0.00000	3046.87500
0.17285	0.00000	3046.87500
0.17668	0.00000	2972.65600
0.18051	0.00000	2972.65600
0.18434	0.00000	2972.65600
0.18816	0.00000	2972.65600
0.19199	0.00000	2891.28100
0.19581	0.00000	2891.28100
0.19964	0.00000	2891.28100
0.20347	0.00000	2891.28100
0.20729	0.00000	2820.44400
0.21111	0.00000	2820.44400
0.21495	0.00000	2820.44400
0.21878	0.00000	2820.44400
0.22261	0.00000	2776.13100
0.22643	0.00000	2776.13100
0.23025	0.00000	2776.13100
0.23408	0.00000	2776.13100
0.23792	0.00000	2714.67300
0.24174	0.00000	2714.67300
0.24555	0.00000	2714.67300
0.24937	0.00000	2714.67300
0.25320	0.00000	2645.38000
0.25703	0.00000	2645.38000
0.26086	0.00000	2645.38000
0.26468	0.00000	2645.38000
0.26851	0.00000	2617.53300
0.27233	0.00000	2617.53300
0.27615	0.00000	2617.53300
0.27998	0.00000	2561.38400
0.28380	0.00000	2561.38400
0.28763	0.00000	2561.38400
0.29145	0.00000	2561.38400
0.29527	0.00000	2502.79000
0.29910	0.00000	2502.79000
0.30292	0.00000	2502.79000
0.30675	0.00000	2502.79000
0.31058	0.00000	2483.10800
0.31440	0.00000	2483.10800
0.31823	0.00000	2483.10800
0.32205	0.00000	2483.10800
0.32587	0.00000	2432.43200
0.32970	0.00000	2432.43200
0.33352	0.00000	2432.43200
0.33735	0.00000	2432.43200
0.34118	0.00000	2403.40900
0.34501	0.00000	2403.40900
0.34883	0.00000	2403.40900
0.35266	0.00000	2378.47200
0.35649	0.00000	2378.47200
0.36032	0.00000	2378.47200
0.36414	0.00000	2378.47200
0.36797	0.00000	2339.40900
0.37179	0.00000	2339.40900
0.37561	0.00000	2339.40900
0.37944	0.00000	2339.40900
0.38327	0.00000	2313.36800
0.38709	0.00000	2313.36800
0.39091	0.00000	2313.36800
0.39473	0.00000	2313.36800
0.39856	0.00000	2274.30500
0.40237	0.00000	2274.30500
0.40620	0.00000	2274.30500
0.41003	0.00000	2264.15100
0.41387	0.00000	2264.15100
0.41769	0.00000	2264.15100
0.42151	0.00000	2264.15100
0.42534	0.00000	2225.46700
0.42916	0.00000	2225.46700
0.43299	0.00000	2225.46700
0.43681	0.00000	2225.46700
0.44062	0.00000	2194.80100
0.44444	0.00000	2194.80100
0.44827	0.00000	2194.80100
0.45210	0.00000	2166.86300
0.45593	0.00000	2166.86300
0.45974	0.00000	2166.86300
0.46357	0.00000	2166.86300
0.46739	0.00000	2144.75200
0.47122	0.00000	2144.75200
0.47503	0.00000	2144.75200
0.47886	0.00000	2144.75200
0.48268	0.00000	2147.32100
0.48650	0.00000	2147.32100
0.49034	0.00000	2147.32100
0.49416	0.00000	2127.40300
0.49798	0.00000	2127.40300
0.50180	0.00000	2127.40300
0.50563	0.00000	2127.40300
0.50946	0.00000	2089.28500
0.51328	0.00000	2089.28500
0.51711	0.00000	2089.28500
0.52094	0.00000	2089.28500
0.52479	0.00000	2062.50000
0.52861	0.00000	2062.50000
0.53244	0.00000	2062.50000
0.53626	0.00000	2050.78100
0.54009	0.00000	2050.78100
0.54391	0.00000	2050.78100
0.54773	0.00000	2050.78100
0.55154	0.00000	2026.78500
0.55536	0.00000	2026.78500
0.55919	0.00000	2026.78500
0.56301	0.00000	2010.21600
0.56685	0.00000	2010.21600
0.57068	0.00000	2010.21600
0.57450	0.00000	2010.21600
0.57832	0.00000	2001.20100
0.58214	0.00000	2001.20100
0.58596	0.00000	2001.20100
0.58978	0.00000	1997.87600
0.59360	0.00000	1997.87600
0.59742	0.00000	1997.87600
0.60123	0.00000	1997.87600
0.60506	0.00000	1979.67200
0.60887	0.00000	1979.67200
0.61269	0.00000	1979.67200
0.61652	0.00000	1979.67200
0.62035	0.00000	1956.12900
0.62417	0.00000	1956.12900
0.62799	0.00000	1956.12900
0.63181	0.00000	1957.72000
0.63563	0.00000	1957.72000
0.63946	0.00000	1957.72000
0.64328	0.00000	1957.72000
0.64710	0.00000	1943.26400
0.65092	0.00000	1943.26400
0.65475	0.00000	1943.26400
0.65856	0.00000	1934.74200
0.66239	0.00000	1934.74200
0.66621	0.00000	1934.74200
0.67003	0.00000	1934.74200
0.67385	0.00000	1911.40700
0.67768	0.00000	1911.40700
0.68150	0.00000	1911.40700
0.68533	0.00000	1907.16900
0.68916	0.00000	1907.16900
0.69298	0.00000	1907.16900
0.69681	0.00000	1907.16900
0.70063	0.00000	1902.57300
0.70444	0.00000	1902.57300
0.70827	0.00000	1902.57300
0.71209	0.00000	1879.59500
0.71593	0.00000	1879.59500
0.71975	0.00000	1879.59500
0.72358	0.00000	1879.59500
0.72739	0.00000	1879.59500
0.73121	0.00000	1879.59500
0.73504	0.00000	1879.59500
0.73886	0.00000	1856.61700
0.74268	0.00000	1856.61700
0.74652	0.00000	1856.61700
0.75037	0.00000	1856.61700
0.75420	0.00000	1852.02200
0.75802	0.00000	1852.02200
0.76185	0.00000	1852.02200
0.76567	0.00000	1856.43500
0.76949	0.00000	1856.43500
0.77331	0.00000	1856.43500
0.77713	0.00000	1856.43500
0.78096	0.00000	1856.43500
0.78479	0.00000	1856.43500
0.78861	0.00000	1856.43500
0.79244	0.00000	1833.23000
0.79627	0.00000	1833.23000
0.80009	0.00000	1833.23000
0.80391	0.00000	1833.23000
0.80773	0.00000	1837.87100
0.81156	0.00000	1837.87100
0.81538	0.00000	1837.87100
0.81920	0.00000	1819.30700
0.82303	0.00000	1819.30700
0.82686	0.00000	1819.30700
0.83069	0.00000	1819.30700
0.83451	0.00000	1819.30700
0.83833	0.00000	1819.30700
0.84215	0.00000	1819.30700
0.84598	0.00000	1823.43700
0.84980	0.00000	1823.43700
0.85363	0.00000	1823.43700
0.85746	0.00000	1823.43700
0.86129	0.00000	1810.02400
0.86512	0.00000	1810.02400
0.86895	0.00000	1810.02400
0.87285	0.00000	1791.46000
0.87681	0.00000	1791.46000
0.88079	0.00000	1791.46000
0.88470	0.00000	1791.46000
0.88854	0.00000	1791.46000
0.89238	0.00000	1791.46000
0.89620	0.00000	1791.46000
0.90003	0.00000	1795.31200
0.90385	0.00000	1795.31200
0.90768	0.00000	1795.31200
0.91151	0.00000	1795.31200
0.91534	0.00000	1804.68700
0.91916	0.00000	1804.68700
0.92298	0.00000	1804.68700
0.92682	0.00000	1785.93700
0.93065	0.00000	1785.93700
0.93447	0.00000	1785.93700
0.93831	0.00000	1785.93700
0.94213	0.00000	1772.89600
0.94596	0.00000	1772.89600
0.94978	0.00000	1772.89600
0.95361	0.00000	1771.87500
0.95743	0.00000	1771.87500
0.96126	0.00000	1771.87500
0.96508	0.00000	1771.87500
0.96890	0.00000	1776.56200
0.97272	0.00000	1776.56200
0.97654	0.00000	1776.56200
0.98037	0.00000	1767.18700
0.98419	0.00000	1767.18700
0.98801	0.00000	1767.18700
0.99183	0.00000	1780.30300
0.99566	0.00000	1780.30300
0.99948	0.00000	1780.30300
1.00331	0.00000	1780.30300
1.00716	0.00000	1762.50000
1.01100	0.00000	1762.50000
1.01482	0.00000	1762.50000
1.01865	0.00000	1753.12500
1.02248	0.00000	1753.12500
1.02632	0.00000	1753.12500
1.03018	0.00000	1753.12500
1.03402	0.00000	1745.04900
1.03785	0.00000	1745.04900
1.04167	0.00000	1745.04900
1.04549	0.00000	1748.43700
1.04933	0.00000	1748.43700
1.05316	0.00000	1748.43700
1.05699	0.00000	1748.43700
1.06082	0.00000	1753.12500
1.06464	0.00000	1753.12500
1.06846	0.00000	1753.12500
1.07229	0.00000	1756.62800
1.07611	0.00000	1756.62800
1.07993	0.00000	1756.62800
1.08375	0.00000	1756.62800
1.08757	0.00000	1743.75000
1.09143	0.00000	1743.75000
1.09529	0.00000	1743.75000
1.09915	0.00000	1729.68700
1.10298	0.00000	1729.68700
1.10680	0.00000	1729.68700
1.11063	0.00000	1729.68700
1.11449	0.00000	1729.68700
1.11832	0.00000	1729.68700
1.12215	0.00000	1729.68700
1.12598	0.00000	1725.00000
1.12981	0.00000	1725.00000
1.13362	0.00000	1725.00000
1.13745	0.00000	1725.00000
1.14127	0.00000	1725.00000
1.14509	0.00000	1725.00000
1.14891	0.00000	1725.00000
1.15273	0.00000	1734.37500
1.15655	0.00000	1734.37500
1.16037	0.00000	1734.37500
1.16420	0.00000	1720.31200
1.16802	0.00000	1720.31200
1.17183	0.00000	1720.31200
1.17566	0.00000	1720.31200
1.17948	0.00000	1725.00000
1.18331	0.00000	1725.00000
1.18713	0.00000	1725.00000
1.19096	0.00000	1710.93700
1.19478	0.00000	1710.93700
1.19860	0.00000	1710.93700
1.20242	0.00000	1710.93700
1.20624	0.00000	1720.31200
1.21006	0.00000	1720.31200
1.21389	0.00000	1720.31200
1.21771	0.00000	1728.21900
1.22153	0.00000	1728.21900
1.22536	0.00000	1728.21900
1.22919	0.00000	1723.48400
1.23301	0.00000	1723.48400
1.23683	0.00000	1723.48400
1.24065	0.00000	1723.48400
1.24448	0.00000	1723.48400
1.24830	0.00000	1723.48400
1.25213	0.00000	1723.48400
1.25595	0.00000	1701.56200
1.25977	0.00000	1701.56200
1.26360	0.00000	1701.56200
1.26742	0.00000	1701.56200
1.27124	0.00000	1706.25000
1.27507	0.00000	1706.25000
1.27889	0.00000	1706.25000
1.28272	0.00000	1718.75000
1.28655	0.00000	1718.75000
1.29037	0.00000	1718.75000
1.29419	0.00000	1718.75000
1.29801	0.00000	1728.21900
1.30183	0.00000	1728.21900
1.30565	0.00000	1728.21900
1.30946	0.00000	1714.01500
1.31328	0.00000	1714.01500
1.31710	0.00000	1714.01500
1.32092	0.00000	1714.01500
1.32475	0.00000	1706.25000
1.32858	0.00000	1706.25000
1.33240	0.00000	1706.25000
1.33623	0.00000	1709.28000
1.34005	0.00000	1709.28000
1.34387	0.00000	1709.28000
1.34769	0.00000	1709.28000
1.35151	0.00000	1709.28000
1.35534	0.00000	1709.28000
1.35916	0.00000	1709.28000
1.36299	0.00000	1696.87500
1.36681	0.00000	1696.87500
1.37063	0.00000	1696.87500
1.37446	0.00000	1709.28000
1.37828	0.00000	1709.28000
1.38211	0.00000	1709.28000
1.38593	0.00000	1709.28000
1.38975	0.00000	1701.56200
1.39355	0.00000	1701.56200
1.39738	0.00000	1701.56200
1.40120	0.00000	1704.54500
1.40502	0.00000	1704.54500
1.40884	0.00000	1704.54500
1.41266	0.00000	1704.54500
1.41648	0.00000	1714.01500
1.42030	0.00000	1714.01500
1.42413	0.00000	1714.01500
1.42795	0.00000	1704.54500
1.43178	0.00000	1704.54500
1.43560	0.00000	1704.54500
1.43943	0.00000	1704.54500
1.44325	0.00000	1704.54500
1.44706	0.00000	1704.54500
1.45089	0.00000	1704.54500
1.45472	0.00000	1699.81000
1.45854	0.00000	1699.81000
1.46236	0.00000	1699.81000
1.46619	0.00000	1704.54500
1.47001	0.00000	1704.54500
1.47383	0.00000	1704.54500
1.47766	0.00000	1704.54500
1.48149	0.00000	1709.28000
1.48531	0.00000	1709.28000
1.48913	0.00000	1709.28000
1.49296	0.00000	1699.81000
1.49677	0.00000	1699.81000
1.50059	0.00000	1699.81000
1.50441	0.00000	1699.81000
1.50823	0.00000	1709.28000
1.51205	0.00000	1709.28000
1.51587	0.00000	1709.28000
1.51969	0.00000	1695.07500
1.52352	0.00000	1695.07500
1.52734	0.00000	1695.07500
1.53117	0.00000	1695.07500
1.53499	0.00000	1692.18700
1.53882	0.00000	1692.18700
1.54264	0.00000	1692.18700
1.54646	0.00000	1699.81000
1.55029	0.00000	1699.81000
1.55411	0.00000	1699.81000
1.55793	0.00000	1695.07500
1.56175	0.00000	1695.07500
1.56555	0.00000	1695.07500
1.56937	0.00000	1695.07500
1.57319	0.00000	1699.81000
1.57701	0.00000	1699.81000
1.58084	0.00000	1699.81000
1.58468	0.00000	1695.07500
1.58850	0.00000	1695.07500
1.59232	0.00000	1695.07500
1.59615	0.00000	1695.07500
1.59996	0.00000	1704.54500
1.60379	0.00000	1704.54500
1.60762	0.00000	1704.54500
1.61145	0.00000	1712.37200
1.61527	0.00000	1712.37200
1.61909	0.00000	1712.37200
1.62291	0.00000	1712.37200
1.62673	0.00000	1704.54500
1.63055	0.00000	1704.54500
1.63437	0.00000	1704.54500
1.63820	0.00000	1690.34000
1.64202	0.00000	1690.34000
1.64585	0.00000	1690.34000
1.64967	0.00000	1695.07500
1.65349	0.00000	1695.07500
1.65732	0.00000	1695.07500
1.66114	0.00000	1695.07500
1.66496	0.00000	1678.12500
1.66878	0.00000	1678.12500
1.67261	0.00000	1678.12500
1.67643	0.00000	1695.07500
1.68026	0.00000	1695.07500
1.68408	0.00000	1695.07500
1.68791	0.00000	1695.07500
1.69173	0.00000	1687.50000
1.69555	0.00000	1687.50000
1.69938	0.00000	1687.50000
1.70320	0.00000	1690.34000
1.70702	0.00000	1690.34000
1.71084	0.00000	1690.34000
1.71466	0.00000	1690.34000
1.71848	0.00000	1682.81200
1.72231	0.00000	1682.81200
1.72613	0.00000	1682.81200
1.72995	0.00000	1690.34000
1.73377	0.00000	1690.34000
1.73755	0.00000	1690.34000
1.74137	0.00000	1690.34000
1.74519	0.00000	1690.34000
1.74902	0.00000	1690.34000
1.75284	0.00000	1690.34000
1.75667	0.00000	1690.34000
1.76049	0.00000	1690.34000
1.76431	0.00000	1690.34000
1.76813	0.00000	1685.60600
1.77196	0.00000	1685.60600
1.77578	0.00000	1685.60600
1.77960	0.00000	1685.60600
1.78342	0.00000	1687.50000
1.78724	0.00000	1687.50000
1.79106	0.00000	1687.50000
1.79488	0.00000	1685.60600
1.79870	0.00000	1685.60600
1.80252	0.00000	1685.60600
1.80634	0.00000	1685.60600
1.81016	0.00000	1678.12500
1.81398	0.00000	1678.12500
1.81780	0.00000	1678.12500
1.82164	0.00000	1690.34000
1.82546	0.00000	1690.34000
1.82929	0.00000	1690.34000
1.83311	0.00000	1685.60600
1.83692	0.00000	1685.60600
1.84075	0.00000	1685.60600
1.84457	0.00000	1685.60600
1.84839	0.00000	1690.34000
1.85222	0.00000	1690.34000
1.85604	0.00000	1690.34000
1.85987	0.00000	1685.60600
1.86368	0.00000	1685.60600
1.86751	0.00000	1685.60600
1.87133	0.00000	1685.60600
1.87516	0.00000	1678.12500
1.87898	0.00000	1678.12500
1.88280	0.00000	1678.12500
1.88662	0.00000	1690.34000
1.89044	0.00000	1690.34000
1.89426	0.00000	1690.34000
1.89809	0.00000	1690.34000
1.90191	0.00000	1682.81200
1.90573	0.00000	1682.81200
1.90955	0.00000	1682.81200
1.91337	0.00000	1685.60600
1.91719	0.00000	1685.60600
1.92101	0.00000	1685.60600
1.92483	0.00000	1685.60600
1.92865	0.00000	1690.34000
1.93248	0.00000	1690.34000
1.93630	0.00000	1690.34000
1.94013	0.00000	1680.87100
1.94396	0.00000	1680.87100
1.94778	0.00000	1680.87100
1.95160	0.00000	1685.60600
1.95542	0.00000	1685.60600
1.95924	0.00000	1685.60600
1.96306	0.00000	1685.60600
1.96689	0.00000	1678.12500
1.97071	0.00000	1678.12500
1.97453	0.00000	1678.12500
1.97835	0.00000	1685.60600
1.98218	0.00000	1685.60600
1.98599	0.00000	1685.60600
1.98982	0.00000	1685.60600
1.99364	0.00000	1678.12500
1.99747	0.00000	1678.12500
2.00128	0.00000	1678.12500
2.00511	0.00000	1685.60600
2.00895	0.00000	1685.60600
2.01278	0.00000	1685.60600
2.01661	0.00000	1685.60600
2.02043	0.00000	1690.34000
2.02426	0.00000	1690.34000
2.02812	0.00000	1690.34000
2.03198	0.00000	1685.60600
2.03580	0.00000	1685.60600
2.03962	0.00000	1685.60600
2.04345	0.00000	1680.87100
2.04727	0.00000	1680.87100
2.05109	0.00000	1680.87100
2.05491	0.00000	1680.87100
2.05874	0.00000	1695.07500
2.06256	0.00000	1695.07500
2.06639	0.00000	1695.07500
2.07020	0.00000	1685.60600
2.07403	0.00000	1685.60600
2.07786	0.00000	1685.60600
2.08172	0.00000	1685.60600
2.08555	0.00000	1690.34000
2.08939	0.00000	1690.34000
2.09322	0.00000	1690.34000
2.09704	0.00000	1702.80600
2.10087	0.00000	1702.80600
2.10470	0.00000	1702.80600
2.10853	0.00000	1685.60600
2.11239	0.00000	1685.60600
2.11622	0.00000	1685.60600
2.12005	0.00000	1685.60600
2.12387	0.00000	1685.60600
2.12769	0.00000	1685.60600
2.13151	0.00000	1685.60600
2.13532	0.00000	1702.80600
2.13915	0.00000	1702.80600
2.14297	0.00000	1702.80600
2.14679	0.00000	1702.80600
2.15061	0.00000	1699.81000
2.15443	0.00000	1699.81000
2.15826	0.00000	1699.81000
2.16208	0.00000	1702.80600
2.16590	0.00000	1702.80600
2.16972	0.00000	1702.80600
2.17355	0.00000	1702.80600
2.17737	0.00000	1690.34000
2.18120	0.00000	1690.34000
2.18502	0.00000	1690.34000
2.18883	0.00000	1685.60600
2.19266	0.00000	1685.60600
2.19648	0.00000	1685.60600
2.20029	0.00000	1698.02300
2.20411	0.00000	1698.02300
2.20793	0.00000	1698.02300
2.21175	0.00000	1698.02300
2.21558	0.00000	1690.34000
2.21942	0.00000	1690.34000
2.22346	0.00000	1690.34000
2.22826	0.00000	1685.60600
2.23291	0.00000	1685.60600
2.23693	0.00000	1685.60600
2.24083	0.00000	1698.02300
2.24470	0.00000	1698.02300
2.24860	0.00000	1698.02300
2.25256	0.00000	1698.02300
2.25656	0.00000	1698.02300
2.26053	0.00000	1698.02300
2.26455	0.00000	1698.02300
2.26854	0.00000	1685.60600
2.27251	0.00000	1685.60600
2.27652	0.00000	1685.60600
2.28050	0.00000	1685.60600
2.28434	0.00000	1685.60600
2.28816	0.00000	1685.60600
2.29199	0.00000	1702.80600
2.29580	0.00000	1702.80600
2.29963	0.00000	1702.80600
2.30345	0.00000	1702.80600
2.30727	0.00000	1685.60600
2.31108	0.00000	1685.60600
2.31490	0.00000	1685.60600
2.31871	0.00000	1680.87100
2.32253	0.00000	1680.87100
2.32635	0.00000	1680.87100
2.33017	0.00000	1680.87100
2.33399	0.00000	1678.12500
2.33781	0.00000	1678.12500
2.34162	0.00000	1678.12500
2.34543	0.00000	1685.60600
2.34924	0.00000	1685.60600
2.35306	0.00000	1685.60600
2.35687	0.00000	1685.60600
2.36068	0.00000	1673.43700
2.36449	0.00000	1673.43700
2.36830	0.00000	1673.43700
2.37211	0.00000	1680.87100
2.37592	0.00000	1680.87100
2.37974	0.00000	1680.87100
2.38355	0.00000	1680.87100
2.38735	0.00000	1680.87100
2.39116	0.00000	1680.87100
2.39497	0.00000	1680.87100
2.39878	0.00000	1685.60600
2.40259	0.00000	1685.60600
2.40641	0.00000	1685.60600
2.41021	0.00000	1680.87100
2.41404	0.00000	1680.87100
2.41785	0.00000	1680.87100
2.42167	0.00000	1680.87100
2.42548	0.00000	1690.34000
2.42929	0.00000	1690.34000
2.43310	0.00000	1690.34000
2.43692	0.00000	1698.02300
2.44075	0.00000	1698.02300
2.44457	0.00000	1698.02300
2.44839	0.00000	1698.02300
2.45221	0.00000	1690.34000
2.45604	0.00000	1690.34000
2.45987	0.00000	1690.34000
2.46369	0.00000	1698.02300
2.46751	0.00000	1698.02300
2.47133	0.00000	1698.02300
2.47515	0.00000	1698.02300
2.47897	0.00000	1680.87100
2.48280	0.00000	1680.87100
2.48662	0.00000	1680.87100
2.49044	0.00000	1680.87100
2.49426	0.00000	1680.87100
2.49810	0.00000	1680.87100
2.50208	0.00000	1680.87100
2.50621	0.00000	1680.87100
2.51030	0.00000	1680.87100
2.51430	0.00000	1680.87100
2.51817	0.00000	1668.75000
2.52201	0.00000	1668.75000
2.52584	0.00000	1668.75000
2.52967	0.00000	1680.87100
2.53353	0.00000	1680.87100
2.53737	0.00000	1680.87100
2.54119	0.00000	1680.87100
2.54503	0.00000	1680.87100
2.54885	0.00000	1680.87100
2.55268	0.00000	1680.87100
2.55650	0.00000	1673.43700
2.56032	0.00000	1673.43700
2.56414	0.00000	1673.43700
2.56796	0.00000	1680.87100
2.57178	0.00000	1680.87100
2.57560	0.00000	1680.87100
2.57942	0.00000	1680.87100
2.58324	0.00000	1673.43700
2.58706	0.00000	1673.43700
2.59088	0.00000	1673.43700
2.59470	0.00000	1685.60600
2.59852	0.00000	1685.60600
2.60234	0.00000	1685.60600
2.60616	0.00000	1685.60600
2.60998	0.00000	1685.60600
2.61380	0.00000	1685.60600
2.61762	0.00000	1685.60600
2.62144	0.00000	1693.23900
2.62526	0.00000	1693.23900
2.62907	0.00000	1693.23900
2.63289	0.00000	1698.02300
2.63674	0.00000	1698.02300
2.64158	0.00000	1698.02300
2.64557	0.00000	1680.87100
2.64956	0.00000	1680.87100
2.65345	0.00000	1680.87100
2.65738	0.00000	1680.87100
2.66128	0.00000	1680.87100
2.66533	0.00000	1680.87100
2.67368	0.00000	1671.40100
2.67877	0.00000	1671.40100
2.68425	0.00000	1671.40100
2.68832	0.00000	1688.45600
2.69283	0.00000	1688.45600
2.69729	0.00000	1688.45600
2.70151	0.00000	1688.45600
2.70560	0.00000	1688.45600
2.70984	0.00000	1688.45600
2.71450	0.00000	1680.87100
2.71859	0.00000	1680.87100
2.72261	0.00000	1680.87100
2.72662	0.00000	1676.13600
2.73060	0.00000	1676.13600
2.73460	0.00000	1676.13600
2.73853	0.00000	1680.87100
2.74258	0.00000	1680.87100
2.74669	0.00000	1680.87100
2.75073	0.00000	1676.13600
2.75467	0.00000	1676.13600
2.75854	0.00000	1676.13600
2.76240	0.00000	1676.13600
2.76638	0.00000	1673.43700
2.77025	0.00000	1673.43700
2.77413	0.00000	1673.43700
2.77851	0.00000	1680.87100
2.78317	0.00000	1680.87100
2.78725	0.00000	1680.87100
2.79110	0.00000	1680.87100
2.79497	0.00000	1680.87100
2.79885	0.00000	1680.87100
2.80269	0.00000	1676.13600
2.80652	0.00000	1676.13600
2.81035	0.00000	1676.13600
2.81420	0.00000	1676.13600
2.81807	0.00000	1668.75000
2.82193	0.00000	1668.75000
2.82576	0.00000	1668.75000
2.82963	0.00000	1680.87100
2.83354	0.00000	1680.87100
2.83738	0.00000	1680.87100
2.84122	0.00000	1680.87100
2.84525	0.00000	1680.87100
2.84913	0.00000	1680.87100
2.85298	0.00000	1680.87100
2.85706	0.00000	1698.02300
2.86094	0.00000	1698.02300
2.86488	0.00000	1698.02300
2.86878	0.00000	1693.23900
2.87264	0.00000	1693.23900
2.87655	0.00000	1693.23900
2.88036	0.00000	1693.23900
2.88419	0.00000	1695.07500
2.88800	0.00000	1695.07500
2.89180	0.00000	1695.07500
2.89561	0.00000	1702.80600
2.89941	0.00000	1702.80600
2.90321	0.00000	1702.80600
2.90701	0.00000	1702.80600
2.91080	0.00000	1685.60600
2.91461	0.00000	1685.60600
2.91841	0.00000	1685.60600
2.92221	0.00000	1676.13600
2.92601	0.00000	1676.13600
2.92981	0.00000	1676.13600
2.93361	0.00000	1676.13600
2.93741	0.00000	1676.13600
2.94121	0.00000	1676.13600
2.94500	0.00000	1676.13600
2.94881	0.00000	1685.60600
2.95261	0.00000	1685.60600
2.95640	0.00000	1685.60600
2.96020	0.00000	1676.13600
2.96401	0.00000	1676.13600
2.96781	0.00000	1676.13600
2.97162	0.00000	1676.13600
2.97542	0.00000	1690.34000
2.97923	0.00000	1690.34000
2.98303	0.00000	1690.34000
2.98683	0.00000	1676.13600
2.99064	0.00000	1676.13600
2.99443	0.00000	1676.13600
2.99824	0.00000	1676.13600
3.00204	0.00000	1690.34000
3.00584	0.00000	1690.34000
3.00965	0.00000	1690.34000
3.01345	0.00000	1693.23900
3.01726	0.00000	1693.23900
3.02105	0.00000	1693.23900
3.02486	0.00000	1693.23900
3.02866	0.00000	1680.87100
3.03247	0.00000	1680.87100
3.03627	0.00000	1680.87100
3.04007	0.00000	1680.87100
3.04388	0.00000	1680.87100
3.04769	0.00000	1680.87100
3.05149	0.00000	1676.13600
3.05529	0.00000	1676.13600
3.05909	0.00000	1676.13600
3.06289	0.00000	1676.13600
3.06668	0.00000	1685.60600
3.07048	0.00000	1685.60600
3.07429	0.00000	1685.60600
3.07808	0.00000	1680.87100
3.08189	0.00000	1680.87100
3.08570	0.00000	1680.87100
3.08950	0.00000	1680.87100
3.09329	0.00000	1673.43700
3.09709	0.00000	1673.43700
3.10090	0.00000	1673.43700
3.10470	0.00000	1680.87100
3.10851	0.00000	1680.87100
3.11231	0.00000	1680.87100
3.11612	0.00000	1680.87100
3.11992	0.00000	1690.34000
3.12373	0.00000	1690.34000
3.12753	0.00000	1690.34000
3.13133	0.00000	1693.23900
3.13513	0.00000	1693.23900
3.13893	0.00000	1693.23900
3.14274	0.00000	1693.23900
3.14654	0.00000	1690.34000
3.15034	0.00000	1690.34000
3.15415	0.00000	1690.34000
3.15795	0.00000	1676.13600
3.16175	0.00000	1676.13600
3.16555	0.00000	1676.13600
3.16935	0.00000	1698.02300
3.17315	0.00000	1698.02300
3.17695	0.00000	1698.02300
3.18075	0.00000	1698.02300
3.18455	0.00000	1685.60600
3.18835	0.00000	1685.60600
3.19215	0.00000	1685.60600
3.19596	0.00000	1680.87100
3.19977	0.00000	1680.87100
3.20357	0.00000	1680.87100
3.20737	0.00000	1680.87100
3.21117	0.00000	1673.43700
3.21497	0.00000	1673.43700
3.21878	0.00000	1673.43700
3.22259	0.00000	1676.13600
3.22642	0.00000	1676.13600
3.23022	0.00000	1676.13600
3.23403	0.00000	1676.13600
3.23782	0.00000	1673.43700
3.24164	0.00000	1673.43700
3.24544	0.00000	1673.43700
3.24923	0.00000	1680.87100
3.25304	0.00000	1680.87100
3.25684	0.00000	1680.87100
3.26064	0.00000	1680.87100
3.26444	0.00000	1690.34000
3.26825	0.00000	1690.34000
3.27205	0.00000	1690.34000
3.27585	0.00000	1680.87100
3.27966	0.00000	1680.87100
3.28346	0.00000	1680.87100
3.28726	0.00000	1680.87100
3.29107	0.00000	1680.87100
3.29488	0.00000	1680.87100
3.29867	0.00000	1680.87100
3.30247	0.00000	1680.87100
3.30627	0.00000	1680.87100
3.31008	0.00000	1680.87100
3.31389	0.00000	1693.23900
3.31771	0.00000	1693.23900
3.32151	0.00000	1693.23900
3.32532	0.00000	1693.23900
3.32912	0.00000	1690.34000
3.33292	0.00000	1690.34000
3.33673	0.00000	1690.34000
3.34053	0.00000	1676.13600
3.34433	0.00000	1676.13600
3.34813	0.00000	1676.13600
3.35193	0.00000	1676.13600
3.35574	0.00000	1678.12500
3.35954	0.00000	1678.12500
3.36334	0.00000	1678.12500
3.36714	0.00000	1676.13600
3.37094	0.00000	1676.13600
3.37476	0.00000	1676.13600
3.37855	0.00000	1676.13600
3.38235	0.00000	1685.60600
3.38617	0.00000	1685.60600
3.38997	0.00000	1685.60600
3.39377	0.00000	1680.87100
3.39755	0.00000	1680.87100
3.40135	0.00000	1680.87100
3.40514	0.00000	1676.13600
3.40894	0.00000	1676.13600
3.41274	0.00000	1676.13600
3.41654	0.00000	1676.13600
3.42034	0.00000	1685.60600
3.42414	0.00000	1685.60600
3.42794	0.00000	1685.60600
3.43174	0.00000	1702.80600
3.43556	0.00000	1702.80600
3.43936	0.00000	1702.80600
3.44317	0.00000	1702.80600
3.44697	0.00000	1690.34000
3.45077	0.00000	1690.34000
3.45457	0.00000	1690.34000
3.45838	0.00000	1680.87100
3.46218	0.00000	1680.87100
3.46598	0.00000	1680.87100
3.46978	0.00000	1680.87100
3.47355	0.00000	1690.34000
3.47736	0.00000	1690.34000
3.48116	0.00000	1690.34000
3.48496	0.00000	1676.13600
3.48876	0.00000	1676.13600
3.49257	0.00000	1676.13600
3.49637	0.00000	1676.13600
3.50017	0.00000	1673.43700
3.50397	0.00000	1673.43700
3.50777	0.00000	1673.43700
3.51157	0.00000	1680.87100
3.51536	0.00000	1680.87100
3.51916	0.00000	1680.87100
3.52296	0.00000	1685.60600
3.52676	0.00000	1685.60600
3.53056	0.00000	1685.60600
3.53437	0.00000	1685.60600
3.53817	0.00000	1680.87100
3.54197	0.00000	1680.87100
3.54577	0.00000	1680.87100
3.54955	0.00000	1676.13600
3.55335	0.00000	1676.13600
3.55715	0.00000	1676.13600
3.56095	0.00000	1676.13600
3.56475	0.00000	1685.60600
3.56855	0.00000	1685.60600
3.57235	0.00000	1685.60600
3.57615	0.00000	1698.02300
3.57996	0.00000	1698.02300
3.58375	0.00000	1698.02300
3.58756	0.00000	1698.02300
3.59136	0.00000	1695.07500
3.59516	0.00000	1695.07500
3.59897	0.00000	1695.07500
3.60277	0.00000	1698.02300
3.60657	0.00000	1698.02300
3.61037	0.00000	1698.02300
3.61417	0.00000	1698.02300
3.61798	0.00000	1690.34000
3.62177	0.00000	1690.34000
3.62555	0.00000	1690.34000
3.62935	0.00000	1676.13600
3.63315	0.00000	1676.13600
3.63695	0.00000	1676.13600
3.64075	0.00000	1676.13600
3.64455	0.00000	1668.75000
3.64836	0.00000	1668.75000
3.65216	0.00000	1668.75000
3.65595	0.00000	1676.13600
3.65975	0.00000	1676.13600
3.66355	0.00000	1676.13600
3.66735	0.00000	1676.13600
3.67115	0.00000	1676.13600
3.67495	0.00000	1676.13600
3.67875	0.00000	1676.13600
3.68256	0.00000	1685.60600
3.68637	0.00000	1685.60600
3.69017	0.00000	1685.60600
3.69398	0.00000	1676.13600
3.69778	0.00000	1676.13600
3.70155	0.00000	1676.13600
3.70535	0.00000	1676.13600
3.70915	0.00000	1690.34000
3.71296	0.00000	1690.34000
3.71676	0.00000	1690.34000
3.72057	0.00000	1693.23900
3.72438	0.00000	1693.23900
3.72818	0.00000	1693.23900
3.73198	0.00000	1693.23900
3.73579	0.00000	1690.34000
3.73959	0.00000	1690.34000
3.74339	0.00000	1690.34000
3.74720	0.00000	1676.13600
3.75100	0.00000	1676.13600
3.75481	0.00000	1676.13600
3.75861	0.00000	1676.13600
3.76241	0.00000	1668.75000
3.76621	0.00000	1668.75000
3.77002	0.00000	1668.75000
3.77382	0.00000	1676.13600
3.77762	0.00000	1676.13600
3.78143	0.00000	1676.13600
3.78523	0.00000	1676.13600
3.78904	0.00000	1676.13600
3.79285	0.00000	1676.13600
3.79665	0.00000	1676.13600
3.80045	0.00000	1685.60600
3.80425	0.00000	1685.60600
3.80805	0.00000	1685.60600
3.81186	0.00000	1676.13600
3.81567	0.00000	1676.13600
3.81949	0.00000	1676.13600
3.82330	0.00000	1676.13600
3.82710	0.00000	1690.34000
3.83090	0.00000	1690.34000
3.83471	0.00000	1690.34000
3.83851	0.00000	1693.23900
3.84232	0.00000	1693.23900
3.84612	0.00000	1693.23900
3.84992	0.00000	1693.23900
3.85372	0.00000	1690.34000
3.85753	0.00000	1690.34000
3.86133	0.00000	1690.34000
3.86513	0.00000	1676.13600
3.86894	0.00000	1676.13600
3.87274	0.00000	1676.13600
3.87654	0.00000	1676.13600
3.88034	0.00000	1680.87100
3.88414	0.00000	1680.87100
3.88795	0.00000	1680.87100
3.89175	0.00000	1680.87100
3.89556	0.00000	1680.87100
3.89937	0.00000	1680.87100
3.90317	0.00000	1676.13600
3.90698	0.00000	1676.13600
3.91078	0.00000	1676.13600
3.91459	0.00000	1676.13600
3.91839	0.00000	1680.87100
3.92219	0.00000	1680.87100
3.92600	0.00000	1680.87100
3.92981	0.00000	1680.87100
3.93362	0.00000	1680.87100
3.93742	0.00000	1680.87100
3.94122	0.00000	1680.87100
3.94501	0.00000	1685.60600
3.94881	0.00000	1685.60600
3.95262	0.00000	1685.60600
3.95643	0.00000	1698.02300
3.96023	0.00000	1698.02300
3.96403	0.00000	1698.02300
3.96783	0.00000	1698.02300
3.97163	0.00000	1695.07500
3.97543	0.00000	1695.07500
3.97924	0.00000	1695.07500
3.98303	0.00000	1698.02300
3.98683	0.00000	1698.02300
3.99064	0.00000	1698.02300
3.99444	0.00000	1698.02300
3.99825	0.00000	1685.60600
4.00205	0.00000	1685.60600
4.00585	0.00000	1685.60600
4.00965	0.00000	1676.13600
4.01344	0.00000	1676.13600
4.01725	0.00000	1676.13600
4.02105	0.00000	1676.13600
4.02485	0.00000	1676.13600
4.02865	0.00000	1676.13600
4.03246	0.00000	1676.13600
4.03626	0.00000	1685.60600
4.04006	0.00000	1685.60600
4.04387	0.00000	1685.60600
4.04767	0.00000	1676.13600
4.05148	0.00000	1676.13600
4.05528	0.00000	1676.13600
4.05908	0.00000	1676.13600
4.06288	0.00000	1668.75000
4.06668	0.00000	1668.75000
4.07049	0.00000	1668.75000
4.07429	0.00000	1680.87100
4.07811	0.00000	1680.87100
4.08191	0.00000	1680.87100
4.08574	0.00000	1680.87100
4.08955	0.00000	1685.60600
4.09335	0.00000	1685.60600
4.09716	0.00000	1685.60600
4.10097	0.00000	1693.23900
4.10477	0.00000	1693.23900
4.10858	0.00000	1693.23900
4.11238	0.00000	1693.23900
4.11618	0.00000	1685.60600
4.11999	0.00000	1685.60600
4.12379	0.00000	1685.60600
4.12759	0.00000	1680.87100
4.13140	0.00000	1680.87100
4.13520	0.00000	1680.87100
4.13901	0.00000	1676.13600
4.14282	0.00000	1676.13600
4.14662	0.00000	1676.13600
4.15041	0.00000	1676.13600
4.15422	0.00000	1685.60600
4.15802	0.00000	1685.60600
4.16182	0.00000	1685.60600
4.16562	0.00000	1676.13600
4.16943	0.00000	1676.13600
4.17323	0.00000	1676.13600
4.17703	0.00000	1676.13600
4.18084	0.00000	1673.43700
4.18464	0.00000	1673.43700
4.18843	0.00000	1673.43700
4.19224	0.00000	1676.13600
4.19604	0.00000	1676.13600
4.19984	0.00000	1676.13600
4.20365	0.00000	1676.13600
4.20744	0.00000	1690.34000
4.21125	0.00000	1690.34000
4.21505	0.00000	1690.34000
4.21885	0.00000	1680.87100
4.22267	0.00000	1680.87100
4.22669	0.00000	1680.87100
4.23060	0.00000	1680.87100
4.23444	0.00000	1680.87100
4.23826	0.00000	1680.87100
4.24207	0.00000	1680.87100
4.24587	0.00000	1680.87100
4.24967	0.00000	1680.87100
4.25348	0.00000	1680.87100
4.25728	0.00000	1693.23900
4.26108	0.00000	1693.23900
4.26489	0.00000	1693.23900
4.26869	0.00000	1693.23900
4.27250	0.00000	1685.60600
4.27629	0.00000	1685.60600
4.28010	0.00000	1685.60600
4.28391	0.00000	1676.13600
4.28771	0.00000	1676.13600
4.29151	0.00000	1676.13600
4.29532	0.00000	1676.13600
4.29912	0.00000	1668.75000
4.30292	0.00000	1668.75000
4.30668	0.00000	1668.75000
4.31048	0.00000	1676.13600
4.31428	0.00000	1676.13600
4.31809	0.00000	1676.13600
4.32190	0.00000	1676.13600
4.32570	0.00000	1685.60600
4.32950	0.00000	1685.60600
4.33333	0.00000	1685.60600
4.33713	0.00000	1693.23900
4.34093	0.00000	1693.23900
4.34473	0.00000	1693.23900
4.34854	0.00000	1693.23900
4.35235	0.00000	1693.23900
4.35615	0.00000	1693.23900
4.35995	0.00000	1693.23900
4.36375	0.00000	1680.87100
4.36755	0.00000	1680.87100
4.37135	0.00000	1680.87100
4.37515	0.00000	1676.13600
4.37896	0.00000	1676.13600
4.38276	0.00000	1676.13600
4.38656	0.00000	1676.13600
4.39036	0.00000	1673.43700
4.39416	0.00000	1673.43700
4.39797	0.00000	1673.43700
4.40177	0.00000	1680.87100
4.40555	0.00000	1680.87100
4.40935	0.00000	1680.87100
4.41316	0.00000	1680.87100
4.41695	0.00000	1673.43700
4.42075	0.00000	1673.43700
4.42455	0.00000	1673.43700
4.42835	0.00000	1676.13600
4.43216	0.00000	1676.13600
4.43596	0.00000	1676.13600
4.43976	0.00000	1676.13600
4.44356	0.00000	1680.87100
4.44735	0.00000	1680.87100
4.45116	0.00000	1680.87100
4.45496	0.00000	1693.23900
4.45877	0.00000	1693.23900
4.46257	0.00000	1693.23900
4.46637	0.00000	1680.87100
4.47017	0.00000	1680.87100
4.47398	0.00000	1680.87100
4.47777	0.00000	1680.87100
4.48155	0.00000	1680.87100
4.48536	0.00000	1680.87100
4.48915	0.00000	1680.87100
4.49295	0.00000	1676.13600
4.49675	0.00000	1676.13600
4.50055	0.00000	1676.13600
4.50435	0.00000	1676.13600
4.50815	0.00000	1690.34000
4.51196	0.00000	1690.34000
4.51576	0.00000	1690.34000
4.51956	0.00000	1671.40100
4.52337	0.00000	1671.40100
4.52718	0.00000	1671.40100
4.53098	0.00000	1671.40100
4.53479	0.00000	1673.43700
4.53859	0.00000	1673.43700
4.54240	0.00000	1673.43700
4.54620	0.00000	1671.40100
4.55000	0.00000	1671.40100
4.55381	0.00000	1671.40100
4.55761	0.00000	1671.40100
4.56141	0.00000	1680.87100
4.56520	0.00000	1680.87100
4.56901	0.00000	1680.87100
4.57282	0.00000	1693.23900
4.57662	0.00000	1693.23900
4.58042	0.00000	1693.23900
4.58423	0.00000	1693.23900
4.58803	0.00000	1693.23900
4.59183	0.00000	1693.23900
4.59564	0.00000	1693.23900
4.59944	0.00000	1680.87100
4.60324	0.00000	1680.87100
4.60704	0.00000	1680.87100
4.61085	0.00000	1676.13600
4.61465	0.00000	1676.13600
4.61846	0.00000	1676.13600
4.62226	0.00000	1676.13600
4.62606	0.00000	1664.06200
4.62985	0.00000	1664.06200
4.63365	0.00000	1664.06200
4.63745	0.00000	1676.13600
4.64125	0.00000	1676.13600
4.64505	0.00000	1676.13600
4.64885	0.00000	1676.13600
4.65265	0.00000	1685.60600
4.65646	0.00000	1685.60600
4.66026	0.00000	1685.60600
4.66408	0.00000	1688.45600
4.66794	0.00000	1688.45600
4.67176	0.00000	1688.45600
4.67557	0.00000	1688.45600
4.67937	0.00000	1680.87100
4.68318	0.00000	1680.87100
4.68699	0.00000	1680.87100
4.69079	0.00000	1671.40100
4.69459	0.00000	1671.40100
4.69839	0.00000	1671.40100
4.70219	0.00000	1676.13600
4.70599	0.00000	1676.13600
4.70979	0.00000	1676.13600
4.71355	0.00000	1676.13600
4.71735	0.00000	1685.60600
4.72114	0.00000	1685.60600
4.72495	0.00000	1685.60600
4.72875	0.00000	1676.13600
4.73255	0.00000	1676.13600
4.73634	0.00000	1676.13600
4.74014	0.00000	1676.13600
4.74394	0.00000	1685.60600
4.74774	0.00000	1685.60600
4.75154	0.00000	1685.60600
4.75535	0.00000	1698.02300
4.75931	0.00000	1698.02300
4.76314	0.00000	1698.02300
4.76696	0.00000	1698.02300
4.77077	0.00000	1685.60600
4.77459	0.00000	1685.60600
4.77840	0.00000	1685.60600
4.78220	0.00000	1671.40100
4.78600	0.00000	1671.40100
4.78980	0.00000	1671.40100
4.79361	0.00000	1676.13600
4.79740	0.00000	1676.13600
4.80120	0.00000	1676.13600
4.80500	0.00000	1676.13600
4.80880	0.00000	1676.13600
4.81261	0.00000	1676.13600
4.81641	0.00000	1676.13600
4.82021	0.00000	1676.13600
4.82402	0.00000	1676.13600
4.82782	0.00000	1676.13600
4.83161	0.00000	1676.13600
4.83542	0.00000	1680.87100
4.83922	0.00000	1680.87100
4.84302	0.00000	1680.87100
4.84682	0.00000	1693.23900
4.85062	0.00000	1693.23900
4.85442	0.00000	1693.23900
4.85824	0.00000	1693.23900
4.86208	0.00000	1690.34000
4.86590	0.00000	1690.34000
4.86970	0.00000	1690.34000
4.87351	0.00000	1688.45600
4.87733	0.00000	1688.45600
4.88113	0.00000	1688.45600
4.88494	0.00000	1688.45600
4.88874	0.00000	1680.87100
4.89255	0.00000	1680.87100
4.89635	0.00000	1680.87100
4.90016	0.00000	1676.13600
4.90396	0.00000	1676.13600
4.90777	0.00000	1676.13600
4.91157	0.00000	1676.13600
4.91537	0.00000	1676.13600
4.91917	0.00000	1676.13600
4.92298	0.00000	1676.13600
4.92678	0.00000	1680.87100
4.93059	0.00000	1680.87100
4.93440	0.00000	1680.87100
4.93820	0.00000	1676.13600
4.94202	0.00000	1676.13600
4.94582	0.00000	1676.13600
4.94961	0.00000	1676.13600
4.95342	0.00000	1685.60600
4.95723	0.00000	1685.60600
4.96102	0.00000	1685.60600
4.96483	0.00000	1693.23900
4.96863	0.00000	1693.23900
4.97244	0.00000	1693.23900
4.97624	0.00000	1693.23900
4.98005	0.00000	1685.60600
4.98385	0.00000	1685.60600
4.98765	0.00000	1685.60600
4.99145	0.00000	1676.13600
4.99526	0.00000	1676.13600
4.99906	0.00000	1676.13600
5.00326	0.00000	1680.87100
5.00710	0.00000	1680.87100
5.01091	0.00000	1680.87100
5.01472	0.00000	1680.87100
5.01857	0.00000	1732.95400
5.02240	0.00000	1732.95400
5.02622	0.00000	1732.95400
5.03004	0.00000	2046.27400
5.03390	0.00000	2046.27400
5.03773	0.00000	2046.27400
5.04155	0.00000	2046.27400
5.04536	0.00000	2369.55200
5.04917	0.00000	2369.55200
5.05298	0.00000	2369.55200
5.05679	0.00000	2369.55200
5.06060	0.00000	2625.00000
5.06441	0.00000	2625.00000
5.06822	0.00000	2625.00000
5.07203	0.00000	2625.00000
5.07584	0.00000	2872.08700
5.07965	0.00000	2872.08700
5.08346	0.00000	2872.08700
5.08727	0.00000	2872.08700
5.09109	0.00000	3035.34800
5.09489	0.00000	3035.34800
5.09869	0.00000	3035.34800
5.10250	0.00000	3035.34800
5.10631	0.00000	3035.34800
5.11012	0.00000	3205.64500
5.11394	0.00000	3205.64500
5.11774	0.00000	3205.64500
5.12155	0.00000	3205.64500
5.12535	0.00000	3310.77700
5.12916	0.00000	3310.77700
5.13297	0.00000	3310.77700
5.13677	0.00000	3310.77700
5.14058	0.00000	3310.77700
5.14439	0.00000	3421.87500
5.14820	0.00000	3421.87500
5.15200	0.00000	3421.87500
5.15582	0.00000	3421.87500
5.15963	0.00000	3504.97100
5.16345	0.00000	3504.97100
5.16726	0.00000	3504.97100
5.17107	0.00000	3504.97100
5.17489	0.00000	3504.97100
5.17870	0.00000	3579.86100
5.18251	0.00000	3579.86100
5.18633	0.00000	3579.86100
5.19013	0.00000	3579.86100
5.19394	0.00000	3670.13800
5.19774	0.00000	3670.13800
5.20154	0.00000	3670.13800
5.20535	0.00000	3670.13800
5.20917	0.00000	3670.13800
5.21298	0.00000	3722.62800
5.21679	0.00000	3722.62800
5.22059	0.00000	3722.62800
5.22440	0.00000	3722.62800
5.22821	0.00000	3722.62800
5.23202	0.00000	3776.97800
5.23583	0.00000	3776.97800
5.23963	0.00000	3776.97800
5.24344	0.00000	3776.97800
5.24725	0.00000	3776.97800
5.25106	0.00000	3796.54200
5.25487	0.00000	3796.54200
5.25867	0.00000	3796.54200
5.26248	0.00000	3796.54200
5.26629	0.00000	3796.54200
5.27010	0.00000	3863.03200
5.27392	0.00000	3863.03200
5.27772	0.00000	3863.03200
5.28153	0.00000	3863.03200
5.28535	0.00000	3863.03200
5.28916	0.00000	3872.13900
5.29297	0.00000	3872.13900
5.29678	0.00000	3872.13900
5.30059	0.00000	3872.13900
5.30440	0.00000	3918.35300
5.30822	0.00000	3918.35300
5.31202	0.00000	3918.35300
5.31583	0.00000	3918.35300
5.31964	0.00000	3918.35300
5.32345	0.00000	3953.23400
5.32727	0.00000	3953.23400
5.33108	0.00000	3953.23400
5.33489	0.00000	3953.23400
5.33870	0.00000	3953.23400
5.34251	0.00000	3968.09900
5.34631	0.00000	3968.09900
5.35012	0.00000	3968.09900
5.35393	0.00000	3968.09900
5.35773	0.00000	3968.09900
5.36154	0.00000	3956.89600
5.36536	0.00000	3956.89600
5.36917	0.00000	3956.89600
5.37298	0.00000	3956.89600
5.37679	0.00000	3956.89600
5.38060	0.00000	4008.62000
5.38441	0.00000	4008.62000
5.38823	0.00000	4008.62000
5.39204	0.00000	4008.62000
5.39585	0.00000	4008.62000
5.39966	0.00000	4003.63800
5.40347	0.00000	4003.63800
5.40728	0.00000	4003.63800
5.41108	0.00000	4003.63800
5.41490	0.00000	4003.63800
5.41871	0.00000	4016.48100
5.42252	0.00000	4016.48100
5.42633	0.00000	4016.48100
5.43013	0.00000	4016.48100
5.43394	0.00000	4016.48100
5.43774	0.00000	4042.16500
5.44155	0.00000	4042.16500
5.44536	0.00000	4042.16500
5.44917	0.00000	4042.16500
5.45298	0.00000	4042.16500
5.45679	0.00000	4055.00800
5.46060	0.00000	4055.00800
5.46440	0.00000	4055.00800
5.46821	0.00000	4055.00800
5.47202	0.00000	4055.00800
5.47582	0.00000	4036.98900
5.47964	0.00000	4036.98900
5.48345	0.00000	4036.98900
5.48725	0.00000	4036.98900
5.49106	0.00000	4036.98900
5.49487	0.00000	4064.64000
5.49869	0.00000	4064.64000
5.50250	0.00000	4064.64000
5.50632	0.00000	4064.64000
5.51013	0.00000	4064.64000
5.51394	0.00000	4077.48300
5.51775	0.00000	4077.48300
5.52155	0.00000	4077.48300
5.52535	0.00000	4077.48300
5.52915	0.00000	4077.48300
5.53296	0.00000	4083.90400
5.53676	0.00000	4083.90400
5.54057	0.00000	4083.90400
5.54437	0.00000	4083.90400
5.54818	0.00000	4083.90400
5.55199	0.00000	4064.64000
5.55579	0.00000	4064.64000
5.55960	0.00000	4064.64000
5.56341	0.00000	4064.64000
5.56722	0.00000	4064.64000
5.57103	0.00000	4064.64000
5.57483	0.00000	4096.74600
5.57863	0.00000	4096.74600
5.58244	0.00000	4096.74600
5.58626	0.00000	4096.74600
5.59007	0.00000	4096.74600
5.59388	0.00000	4068.87700
5.59769	0.00000	4068.87700
5.60150	0.00000	4068.87700
5.60530	0.00000	4068.87700
5.60911	0.00000	4068.87700
5.61292	0.00000	4078.44400
5.61674	0.00000	4078.44400
5.62055	0.00000	4078.44400
5.62435	0.00000	4078.44400
5.62815	0.00000	4078.44400
5.63196	0.00000	4078.44400
5.63577	0.00000	4078.44400
5.63959	0.00000	4078.44400
5.64339	0.00000	4078.44400
5.64720	0.00000	4078.44400
5.65101	0.00000	4081.63200
5.65482	0.00000	4081.63200
5.65863	0.00000	4081.63200
5.66244	0.00000	4081.63200
5.66625	0.00000	4081.63200
5.67006	0.00000	4094.38700
5.67386	0.00000	4094.38700
5.67767	0.00000	4094.38700
5.68147	0.00000	4094.38700
5.68528	0.00000	4094.38700
5.68910	0.00000	4084.82100
5.69291	0.00000	4084.82100
5.69672	0.00000	4084.82100
5.70053	0.00000	4084.82100
5.70433	0.00000	4084.82100
5.70813	0.00000	4097.57600
5.71193	0.00000	4097.57600
5.71573	0.00000	4097.57600
5.71954	0.00000	4097.57600
5.72335	0.00000	4097.57600
5.72716	0.00000	4073.05700
5.73096	0.00000	4073.05700
5.73477	0.00000	4073.05700
5.73857	0.00000	4073.05700
5.74238	0.00000	4073.05700
5.74620	0.00000	4073.05700
5.75000	0.00000	4073.05700
5.75382	0.00000	4073.05700
5.75763	0.00000	4073.05700
5.76144	0.00000	4073.05700
5.76525	0.00000	4082.55900
5.76906	0.00000	4082.55900
5.77287	0.00000	4082.55900
5.77668	0.00000	4082.55900
5.78050	0.00000	4082.55900
5.78430	0.00000	4103.95400
5.78811	0.00000	4103.95400
5.79192	0.00000	4103.95400
5.79573	0.00000	4103.95400
5.79953	0.00000	4103.95400
5.80334	0.00000	4103.95400
5.80715	0.00000	4103.95400
5.81096	0.00000	4103.95400
5.81478	0.00000	4103.95400
5.81859	0.00000	4103.95400
5.82239	0.00000	4094.38700
5.82622	0.00000	4094.38700
5.83002	0.00000	4094.38700
5.83383	0.00000	4094.38700
5.83764	0.00000	4094.38700
5.84147	0.00000	4076.22400
5.84530	0.00000	4076.22400
5.84911	0.00000	4076.22400
5.85293	0.00000	4076.22400
5.85675	0.00000	4076.22400
5.86058	0.00000	4103.95400
5.86438	0.00000	4103.95400
5.86819	0.00000	4103.95400
5.87200	0.00000	4103.95400
5.87581	0.00000	4103.95400
5.87962	0.00000	4103.95400
5.88342	0.00000	4078.44400
5.88723	0.00000	4078.44400
5.89104	0.00000	4078.44400
5.89485	0.00000	4078.44400
5.89866	0.00000	4078.44400
5.90247	0.00000	4094.38700
5.90628	0.00000	4094.38700
5.91008	0.00000	4094.38700
5.91390	0.00000	4094.38700
5.91772	0.00000	4094.38700
5.92153	0.00000	4073.05700
5.92534	0.00000	4073.05700
5.92915	0.00000	4073.05700
5.93296	0.00000	4073.05700
5.93676	0.00000	4073.05700
5.94056	0.00000	4073.05700
5.94438	0.00000	4073.05700
5.94819	0.00000	4073.05700
5.95200	0.00000	4073.05700
5.95581	0.00000	4073.05700
5.95961	0.00000	4107.14300
5.96342	0.00000	4107.14300
5.96722	0.00000	4107.14300
5.97103	0.00000	4107.14300
5.97484	0.00000	4107.14300
5.97866	0.00000	4110.33100
5.98247	0.00000	4110.33100
5.98628	0.00000	4110.33100
5.99009	0.00000	4110.33100
5.99390	0.00000	4110.33100
5.99771	0.00000	4094.38700
6.00152	0.00000	4094.38700
6.00534	0.00000	4094.38700
6.00915	0.00000	4094.38700
6.01296	0.00000	4094.38700
6.01677	0.00000	4076.22400
6.02058	0.00000	4076.22400
6.02439	0.00000	4076.22400
6.02821	0.00000	4076.22400
6.03202	0.00000	4076.22400
6.03583	0.00000	4085.72600
6.03964	0.00000	4085.72600
6.04345	0.00000	4085.72600
6.04727	0.00000	4085.72600
6.05108	0.00000	4085.72600
6.05488	0.00000	4079.39100
6.05869	0.00000	4079.39100
6.06250	0.00000	4079.39100
6.06632	0.00000	4079.39100
6.07014	0.00000	4079.39100
6.07395	0.00000	4085.72600
6.07777	0.00000	4085.72600
6.08155	0.00000	4085.72600
6.08536	0.00000	4085.72600
6.08917	0.00000	4085.72600
6.09298	0.00000	4103.95400
6.09681	0.00000	4103.95400
6.10062	0.00000	4103.95400
6.10443	0.00000	4103.95400
6.10824	0.00000	4103.95400
6.11205	0.00000	4103.95400
6.11588	0.00000	4103.95400
6.11969	0.00000	4103.95400
6.12350	0.00000	4103.95400
6.12731	0.00000	4103.95400
6.13112	0.00000	4110.33100
6.13494	0.00000	4110.33100
6.13876	0.00000	4110.33100
6.14257	0.00000	4110.33100
6.14639	0.00000	4110.33100
6.15020	0.00000	4094.38700
6.15401	0.00000	4094.38700
6.15782	0.00000	4094.38700
6.16164	0.00000	4094.38700
6.16545	0.00000	4094.38700
6.16925	0.00000	4094.38700
6.17305	0.00000	4100.76500
6.17686	0.00000	4100.76500
6.18067	0.00000	4100.76500
6.18448	0.00000	4100.76500
6.18829	0.00000	4100.76500
6.19210	0.00000	4076.22400
6.19592	0.00000	4076.22400
6.19974	0.00000	4076.22400
6.20355	0.00000	4076.22400
6.20736	0.00000	4076.22400
6.21117	0.00000	4088.89300
6.21498	0.00000	4088.89300
6.21879	0.00000	4088.89300
6.22260	0.00000	4088.89300
6.22641	0.00000	4088.89300
6.23022	0.00000	4079.39100
6.23403	0.00000	4079.39100
6.23786	0.00000	4079.39100
6.24168	0.00000	4079.39100
6.24548	0.00000	4079.39100
6.24929	0.00000	4094.38700
6.25310	0.00000	4094.38700
6.25691	0.00000	4094.38700
6.26072	0.00000	4094.38700
6.26453	0.00000	4094.38700
6.26834	0.00000	4092.06000
6.27217	0.00000	4092.06000
6.27598	0.00000	4092.06000
6.27978	0.00000	4092.06000
6.28359	0.00000	4092.06000
6.28739	0.00000	4113.52000
6.29120	0.00000	4113.52000
6.29501	0.00000	4113.52000
6.29883	0.00000	4113.52000
6.30264	0.00000	4113.52000
6.30648	0.00000	4103.95400
6.31029	0.00000	4103.95400
6.31410	0.00000	4103.95400
6.31792	0.00000	4103.95400
6.32172	0.00000	4103.95400
6.32553	0.00000	4110.33100
6.32935	0.00000	4110.33100
6.33317	0.00000	4110.33100
6.33698	0.00000	4110.33100
6.34080	0.00000	4110.33100
6.34461	0.00000	4079.39100
6.34841	0.00000	4079.39100
6.35222	0.00000	4079.39100
6.35603	0.00000	4079.39100
6.35983	0.00000	4079.39100
6.36364	0.00000	4076.22400
6.36744	0.00000	4076.22400
6.37125	0.00000	4076.22400
6.37506	0.00000	4076.22400
6.37887	0.00000	4076.22400
6.38269	0.00000	4079.39100
6.38650	0.00000	4079.39100
6.39031	0.00000	4079.39100
6.39412	0.00000	4079.39100
6.39793	0.00000	4079.39100
6.40174	0.00000	4082.55900
6.40555	0.00000	4082.55900
6.40935	0.00000	4082.55900
6.41316	0.00000	4082.55900
6.41697	0.00000	4082.55900
6.42077	0.00000	4107.14300
6.42458	0.00000	4107.14300
6.42839	0.00000	4107.14300
6.43221	0.00000	4107.14300
6.43602	0.00000	4107.14300
6.43983	0.00000	4103.95400
6.44363	0.00000	4103.95400
6.44744	0.00000	4103.95400
6.45125	0.00000	4103.95400
6.45507	0.00000	4103.95400
6.45887	0.00000	4103.95400
6.46268	0.00000	4085.72600
6.46649	0.00000	4085.72600
6.47029	0.00000	4085.72600
6.47410	0.00000	4085.72600
6.47790	0.00000	4085.72600
6.48171	0.00000	4082.55900
6.48551	0.00000	4082.55900
6.48932	0.00000	4082.55900
6.49313	0.00000	4082.55900
6.49693	0.00000	4082.55900
6.50074	0.00000	4079.39100
6.50456	0.00000	4079.39100
6.50837	0.00000	4079.39100
6.51217	0.00000	4079.39100
6.51599	0.00000	4079.39100
6.51979	0.00000	4107.14300
6.52359	0.00000	4107.14300
6.52740	0.00000	4107.14300
6.53120	0.00000	4107.14300
6.53501	0.00000	4107.14300
6.53883	0.00000	4110.33100
6.54263	0.00000	4110.33100
6.54644	0.00000	4110.33100
6.55025	0.00000	4110.33100
6.55407	0.00000	4110.33100
6.55787	0.00000	4113.52000
6.56168	0.00000	4113.52000
6.56549	0.00000	4113.52000
6.56930	0.00000	4113.52000
6.57311	0.00000	4113.52000
6.57691	0.00000	4107.14300
6.58073	0.00000	4107.14300
6.58453	0.00000	4107.14300
6.58834	0.00000	4107.14300
6.59214	0.00000	4107.14300
6.59595	0.00000	4082.55900
6.59976	0.00000	4082.55900
6.60357	0.00000	4082.55900
6.60738	0.00000	4082.55900
6.61119	0.00000	4082.55900
6.61500	0.00000	4082.55900
6.61881	0.00000	4082.55900
6.62263	0.00000	4082.55900
6.62644	0.00000	4082.55900
6.63025	0.00000	4082.55900
6.63406	0.00000	4076.22400
6.63786	0.00000	4076.22400
6.64167	0.00000	4076.22400
6.64548	0.00000	4076.22400
6.64928	0.00000	4076.22400
6.65310	0.00000	4088.89300
6.65693	0.00000	4088.89300
6.66074	0.00000	4088.89300
6.66455	0.00000	4088.89300
6.66837	0.00000	4088.89300
6.67218	0.00000	4100.76500
6.67600	0.00000	4100.76500
6.67980	0.00000	4100.76500
6.68361	0.00000	4100.76500
6.68741	0.00000	4100.76500
6.69122	0.00000	4100.76500
6.69503	0.00000	4100.76500
6.69883	0.00000	4100.76500
6.70265	0.00000	4100.76500
6.70646	0.00000	4100.76500
6.71028	0.00000	4100.76500
6.71409	0.00000	4100.76500
6.71792	0.00000	4100.76500
6.72173	0.00000	4100.76500
6.72555	0.00000	4100.76500
6.72935	0.00000	4100.76500
6.73316	0.00000	4103.95400
6.73698	0.00000	4103.95400
6.74079	0.00000	4103.95400
6.74460	0.00000	4103.95400
6.74841	0.00000	4103.95400
6.75222	0.00000	4100.76500
6.75602	0.00000	4100.76500
6.75982	0.00000	4100.76500
6.76363	0.00000	4100.76500
6.76745	0.00000	4100.76500
6.77126	0.00000	4082.55900
6.77507	0.00000	4082.55900
6.77887	0.00000	4082.55900
6.78268	0.00000	4082.55900
6.78648	0.00000	4082.55900
6.79029	0.00000	4076.22400
6.79409	0.00000	4076.22400
6.79790	0.00000	4076.22400
6.80170	0.00000	4076.22400
6.80551	0.00000	4076.22400
6.80932	0.00000	4091.19900
6.81315	0.00000	4091.19900
6.81695	0.00000	4091.19900
6.82076	0.00000	4091.19900
6.82457	0.00000	4091.19900
6.82837	0.00000	4097.57600
6.83220	0.00000	4097.57600
6.83602	0.00000	4097.57600
6.83984	0.00000	4097.57600
6.84365	0.00000	4097.57600
6.84748	0.00000	4079.39100
6.85130	0.00000	4079.39100
6.85511	0.00000	4079.39100
6.85893	0.00000	4079.39100
6.86274	0.00000	4079.39100
6.86654	0.00000	4085.72600
6.87035	0.00000	4085.72600
6.87415	0.00000	4085.72600
6.87796	0.00000	4085.72600
6.88184	0.00000	4085.72600
6.88572	0.00000	4079.39100
6.88955	0.00000	4079.39100
6.89336	0.00000	4079.39100
6.89717	0.00000	4079.39100
6.90099	0.00000	4079.39100
6.90480	0.00000	4079.39100
6.90861	0.00000	4079.39100
6.91241	0.00000	4079.39100
6.91623	0.00000	4079.39100
6.92004	0.00000	4079.39100
6.92384	0.00000	4095.22800
6.92766	0.00000	4095.22800
6.93147	0.00000	4095.22800
6.93528	0.00000	4095.22800
6.93909	0.00000	4095.22800
6.94290	0.00000	4088.89300
6.94674	0.00000	4088.89300
6.95054	0.00000	4088.89300
6.95435	0.00000	4088.89300
6.95815	0.00000	4088.89300
6.96196	0.00000	4066.72300
6.96577	0.00000	4066.72300
6.96955	0.00000	4066.72300
6.97337	0.00000	4066.72300
6.97717	0.00000	4066.72300
6.98098	0.00000	4110.33100
6.98480	0.00000	4110.33100
6.98861	0.00000	4110.33100
6.99242	0.00000	4110.33100
6.99623	0.00000	4110.33100
7.00004	0.00000	4103.95400
7.00385	0.00000	4103.95400
7.00765	0.00000	4103.95400
7.01147	0.00000	4103.95400
7.01528	0.00000	4103.95400
7.01909	0.00000	4103.95400
7.02290	0.00000	4110.33100
7.02672	0.00000	4110.33100
7.03055	0.00000	4110.33100
7.03436	0.00000	4110.33100
7.03817	0.00000	4110.33100
7.04199	0.00000	4107.14300
7.04580	0.00000	4107.14300
7.04960	0.00000	4107.14300
7.05342	0.00000	4107.14300
7.05723	0.00000	4107.14300
7.06104	0.00000	4103.95400
7.06485	0.00000	4103.95400
7.06869	0.00000	4103.95400
7.07250	0.00000	4103.95400
7.07631	0.00000	4103.95400
7.08011	0.00000	4116.70900
7.08392	0.00000	4116.70900
7.08773	0.00000	4116.70900
7.09155	0.00000	4116.70900
7.09539	0.00000	4116.70900
7.09924	0.00000	4107.14300
7.10306	0.00000	4107.14300
7.10687	0.00000	4107.14300
7.11069	0.00000	4107.14300
7.11451	0.00000	4107.14300
7.11832	0.00000	4092.06000
7.12214	0.00000	4092.06000
7.12596	0.00000	4092.06000
7.12977	0.00000	4092.06000
7.13355	0.00000	4092.06000
7.13736	0.00000	4113.52000
7.14117	0.00000	4113.52000
7.14498	0.00000	4113.52000
7.14879	0.00000	4113.52000
7.15259	0.00000	4113.52000
7.15640	0.00000	4116.70900
7.16022	0.00000	4116.70900
7.16403	0.00000	4116.70900
7.16785	0.00000	4116.70900
7.17165	0.00000	4116.70900
7.17546	0.00000	4082.55900
7.17928	0.00000	4082.55900
7.18309	0.00000	4082.55900
7.18690	0.00000	4082.55900
7.19071	0.00000	4082.55900
7.19452	0.00000	4073.05700
7.19832	0.00000	4073.05700
7.20213	0.00000	4073.05700
7.20595	0.00000	4073.05700
7.20976	0.00000	4073.05700
7.21355	0.00000	4085.72600
7.21736	0.00000	4085.72600
7.22116	0.00000	4085.72600
7.22497	0.00000	4085.72600
7.22878	0.00000	4085.72600
7.23261	0.00000	4088.89300
7.23643	0.00000	4088.89300
7.24024	0.00000	4088.89300
7.24405	0.00000	4088.89300
7.24786	0.00000	4088.89300
7.25167	0.00000	4088.89300
7.25549	0.00000	4088.89300
7.25930	0.00000	4088.89300
7.26312	0.00000	4088.89300
7.26692	0.00000	4088.89300
7.27072	0.00000	4079.39100
7.27453	0.00000	4079.39100
7.27835	0.00000	4079.39100
7.28216	0.00000	4079.39100
7.28598	0.00000	4079.39100
7.28978	0.00000	4094.38700
7.29360	0.00000	4094.38700
7.29742	0.00000	4094.38700
7.30122	0.00000	4094.38700
7.30505	0.00000	4094.38700
7.30885	0.00000	4094.38700
7.31266	0.00000	4082.55900
7.31647	0.00000	4082.55900
7.32028	0.00000	4082.55900
7.32410	0.00000	4082.55900
7.32792	0.00000	4082.55900
7.33173	0.00000	4088.89300
7.33553	0.00000	4088.89300
7.33933	0.00000	4088.89300
7.34316	0.00000	4088.89300
7.34697	0.00000	4088.89300
7.35077	0.00000	4076.22400
7.35459	0.00000	4076.22400
7.35839	0.00000	4076.22400
7.36219	0.00000	4076.22400
7.36601	0.00000	4076.22400
7.36983	0.00000	4079.39100
7.37364	0.00000	4079.39100
7.37744	0.00000	4079.39100
7.38125	0.00000	4079.39100
7.38506	0.00000	4079.39100
7.38886	0.00000	4097.57600
7.39267	0.00000	4097.57600
7.39648	0.00000	4097.57600
7.40029	0.00000	4097.57600
7.40410	0.00000	4097.57600
7.40791	0.00000	4113.52000
7.41172	0.00000	4113.52000
7.41552	0.00000	4113.52000
7.41933	0.00000	4113.52000
7.42315	0.00000	4113.52000
7.42695	0.00000	4110.33100
7.43076	0.00000	4110.33100
7.43457	0.00000	4110.33100
7.43838	0.00000	4110.33100
7.44220	0.00000	4110.33100
7.44601	0.00000	4095.22800
7.44982	0.00000	4095.22800
7.45363	0.00000	4095.22800
7.45744	0.00000	4095.22800
7.46125	0.00000	4095.22800
7.46507	0.00000	4085.72600
7.46890	0.00000	4085.72600
7.47271	0.00000	4085.72600
7.47652	0.00000	4085.72600
7.48033	0.00000	4085.72600
7.48414	0.00000	4082.55900
7.48795	0.00000	4082.55900
7.49176	0.00000	4082.55900
7.49557	0.00000	4082.55900
7.49937	0.00000	4082.55900
7.50318	0.00000	4082.55900
7.50698	0.00000	4082.55900
7.51080	0.00000	4082.55900
7.51460	0.00000	4082.55900
7.51841	0.00000	4082.55900
7.52222	0.00000	4079.39100
7.52603	0.00000	4079.39100
7.52983	0.00000	4079.39100
7.53364	0.00000	4079.39100
7.53744	0.00000	4079.39100
7.54125	0.00000	4085.72600
7.54507	0.00000	4085.72600
7.54888	0.00000	4085.72600
7.55268	0.00000	4085.72600
7.55650	0.00000	4085.72600
7.56032	0.00000	4097.57600
7.56413	0.00000	4097.57600
7.56794	0.00000	4097.57600
7.57175	0.00000	4097.57600
7.57555	0.00000	4097.57600
7.57936	0.00000	4097.57600
7.58317	0.00000	4073.05700
7.58699	0.00000	4073.05700
7.59079	0.00000	4073.05700
7.59460	0.00000	4073.05700
7.59840	0.00000	4073.05700
7.60221	0.00000	4082.55900
7.60603	0.00000	4082.55900
7.60984	0.00000	4082.55900
7.61365	0.00000	4082.55900
7.61746	0.00000	4082.55900
7.62127	0.00000	4085.72600
7.62508	0.00000	4085.72600
7.62890	0.00000	4085.72600
7.63271	0.00000	4085.72600
7.63652	0.00000	4085.72600
7.64032	0.00000	4092.06000
7.64413	0.00000	4092.06000
7.64793	0.00000	4092.06000
7.65173	0.00000	4092.06000
7.65555	0.00000	4092.06000
7.65937	0.00000	4082.55900
7.66318	0.00000	4082.55900
7.66698	0.00000	4082.55900
7.67080	0.00000	4082.55900
7.67460	0.00000	4082.55900
7.67842	0.00000	4100.76500
7.68222	0.00000	4100.76500
7.68603	0.00000	4100.76500
7.68984	0.00000	4100.76500
7.69365	0.00000	4100.76500
7.69745	0.00000	4113.52000
7.70126	0.00000	4113.52000
7.70508	0.00000	4113.52000
7.70890	0.00000	4113.52000
7.71270	0.00000	4113.52000
7.71652	0.00000	4103.95400
7.72033	0.00000	4103.95400
7.72413	0.00000	4103.95400
7.72795	0.00000	4103.95400
7.73175	0.00000	4103.95400
7.73556	0.00000	4110.33100
7.73937	0.00000	4110.33100
7.74320	0.00000	4110.33100
7.74703	0.00000	4110.33100
7.75088	0.00000	4110.33100
7.75472	0.00000	4088.89300
7.75855	0.00000	4088.89300
7.76237	0.00000	4088.89300
7.76620	0.00000	4088.89300
7.77004	0.00000	4088.89300
7.77388	0.00000	4085.72600
7.77770	0.00000	4085.72600
7.78153	0.00000	4085.72600
7.78537	0.00000	4085.72600
7.78921	0.00000	4085.72600
7.79305	0.00000	4073.05700
7.79688	0.00000	4073.05700
7.80071	0.00000	4073.05700
7.80454	0.00000	4073.05700
7.80837	0.00000	4073.05700
7.81221	0.00000	4076.22400
7.81606	0.00000	4076.22400
7.81989	0.00000	4076.22400
7.82372	0.00000	4076.22400
7.82755	0.00000	4076.22400
7.83137	0.00000	4097.57600
7.83520	0.00000	4097.57600
7.83903	0.00000	4097.57600
7.84286	0.00000	4097.57600
7.84669	0.00000	4097.57600
7.85052	0.00000	4100.76500
7.85439	0.00000	4100.76500
7.85823	0.00000	4100.76500
7.86206	0.00000	4100.76500
7.86589	0.00000	4100.76500
7.86972	0.00000	4113.52000
7.87355	0.00000	4113.52000
7.87738	0.00000	4113.52000
7.88120	0.00000	4113.52000
7.88503	0.00000	4113.52000
7.88885	0.00000	4091.19900
7.89268	0.00000	4091.19900
7.89651	0.00000	4091.19900
7.90034	0.00000	4091.19900
7.90417	0.00000	4091.19900
7.90800	0.00000	4097.57600
7.91182	0.00000	4097.57600
7.91566	0.00000	4097.57600
7.91949	0.00000	4097.57600
7.92332	0.00000	4097.57600
7.92715	0.00000	4097.57600
7.93097	0.00000	4100.76500
7.93480	0.00000	4100.76500
7.93863	0.00000	4100.76500
7.94247	0.00000	4100.76500
7.94631	0.00000	4100.76500
7.95014	0.00000	4088.01000
7.95397	0.00000	4088.01000
7.95781	0.00000	4088.01000
7.96164	0.00000	4088.01000
7.96546	0.00000	4088.01000
7.96929	0.00000	4094.38700
7.97313	0.00000	4094.38700
7.97696	0.00000	4094.38700
7.98079	0.00000	4094.38700
7.98465	0.00000	4094.38700
7.98851	0.00000	4076.22400
7.99236	0.00000	4076.22400
7.99620	0.00000	4076.22400
8.00003	0.00000	4076.22400
8.00388	0.00000	4076.22400
8.00771	0.00000	4076.22400
8.01157	0.00000	4076.22400
8.01541	0.00000	4076.22400
8.01925	0.00000	4076.22400
8.02308	0.00000	4076.22400
8.02693	0.00000	4085.72600
8.03079	0.00000	4085.72600
8.03462	0.00000	4085.72600
8.03845	0.00000	4085.72600
8.04230	0.00000	4085.72600
8.04613	0.00000	4107.14300
8.04996	0.00000	4107.14300
8.05379	0.00000	4107.14300
8.05763	0.00000	4107.14300
8.06147	0.00000	4107.14300
8.06530	0.00000	4091.19900
8.06914	0.00000	4091.19900
8.07297	0.00000	4091.19900
8.07680	0.00000	4091.19900
8.08064	0.00000	4091.19900
8.08447	0.00000	4066.72300
8.08830	0.00000	4066.72300
8.09214	0.00000	4066.72300
8.09597	0.00000	4066.72300
8.09980	0.00000	4066.72300
8.10364	0.00000	4103.95400
8.10746	0.00000	4103.95400
8.11129	0.00000	4103.95400
8.11513	0.00000	4103.95400
8.11896	0.00000	4103.95400
8.12279	0.00000	4097.57600
8.12662	0.00000	4097.57600
8.13045	0.00000	4097.57600
8.13428	0.00000	4097.57600
8.13811	0.00000	4097.57600
8.14195	0.00000	4076.22400
8.14579	0.00000	4076.22400
8.14962	0.00000	4076.22400
8.15345	0.00000	4076.22400
8.15728	0.00000	4076.22400
8.16111	0.00000	4073.05700
8.16495	0.00000	4073.05700
8.16879	0.00000	4073.05700
8.17263	0.00000	4073.05700
8.17645	0.00000	4073.05700
8.18028	0.00000	4103.95400
8.18412	0.00000	4103.95400
8.18795	0.00000	4103.95400
8.19179	0.00000	4103.95400
8.19562	0.00000	4103.95400
8.19946	0.00000	4103.95400
8.20329	0.00000	4103.95400
8.20713	0.00000	4103.95400
8.21097	0.00000	4103.95400
8.21480	0.00000	4103.95400
8.21864	0.00000	4110.33100
8.22247	0.00000	4110.33100
8.22630	0.00000	4110.33100
8.23015	0.00000	4110.33100
8.23398	0.00000	4110.33100
8.23781	0.00000	4066.72300
8.24165	0.00000	4066.72300
8.24548	0.00000	4066.72300
8.24932	0.00000	4066.72300
8.25316	0.00000	4066.72300
8.25699	0.00000	4082.55900
8.26082	0.00000	4082.55900
8.26465	0.00000	4082.55900
8.26848	0.00000	4082.55900
8.27232	0.00000	4082.55900
8.27615	0.00000	4088.89300
8.27998	0.00000	4088.89300
8.28381	0.00000	4088.89300
8.28764	0.00000	4088.89300
8.29147	0.00000	4088.89300
8.29530	0.00000	4085.72600
8.29913	0.00000	4085.72600
8.30297	0.00000	4085.72600
8.30679	0.00000	4085.72600
8.31063	0.00000	4085.72600
8.31446	0.00000	4076.22400
8.31830	0.00000	4076.22400
8.32212	0.00000	4076.22400
8.32595	0.00000	4076.22400
8.32978	0.00000	4076.22400
8.33362	0.00000	4110.33100
8.33746	0.00000	4110.33100
8.34129	0.00000	4110.33100
8.34512	0.00000	4110.33100
8.34895	0.00000	4110.33100
8.35278	0.00000	4103.95400
8.35661	0.00000	4103.95400
8.36044	0.00000	4103.95400
8.36427	0.00000	4103.95400
8.36811	0.00000	4103.95400
8.37194	0.00000	4103.95400
8.37578	0.00000	4103.95400
8.37962	0.00000	4103.95400
8.38345	0.00000	4103.95400
8.38727	0.00000	4103.95400
8.39111	0.00000	4069.89000
8.39494	0.00000	4069.89000
8.39877	0.00000	4069.89000
8.40260	0.00000	4069.89000
8.40643	0.00000	4069.89000
8.41026	0.00000	4073.05700
8.41410	0.00000	4073.05700
8.41793	0.00000	4073.05700
8.42176	0.00000	4073.05700
8.42555	0.00000	4073.05700
8.42938	0.00000	4091.19900
8.43320	0.00000	4091.19900
8.43704	0.00000	4091.19900
8.44087	0.00000	4091.19900
8.44471	0.00000	4091.19900
8.44855	0.00000	4084.82100
8.45237	0.00000	4084.82100
8.45621	0.00000	4084.82100
8.46003	0.00000	4084.82100
8.46386	0.00000	4084.82100
8.46770	0.00000	4081.63200
8.47152	0.00000	4081.63200
8.47535	0.00000	4081.63200
8.47919	0.00000	4081.63200
8.48303	0.00000	4081.63200
8.48688	0.00000	4081.63200
8.49070	0.00000	4075.25500
8.49453	0.00000	4075.25500
8.49836	0.00000	4075.25500
8.50219	0.00000	4075.25500
8.50601	0.00000	4075.25500
8.50984	0.00000	4084.82100
8.51367	0.00000	4084.82100
8.51750	0.00000	4084.82100
8.52133	0.00000	4084.82100
8.52516	0.00000	4084.82100
8.52899	0.00000	4081.63200
8.53283	0.00000	4081.63200
8.53665	0.00000	4081.63200
8.54049	0.00000	4081.63200
8.54432	0.00000	4081.63200
8.54815	0.00000	4073.05700
8.55199	0.00000	4073.05700
8.55583	0.00000	4073.05700
8.55966	0.00000	4073.05700
8.56349	0.00000	4073.05700
8.56733	0.00000	4100.76500
8.57116	0.00000	4100.76500
8.57499	0.00000	4100.76500
8.57882	0.00000	4100.76500
8.58265	0.00000	4100.76500
8.58648	0.00000	4091.19900
8.59033	0.00000	4091.19900
8.59415	0.00000	4091.19900
8.59798	0.00000	4091.19900
8.60182	0.00000	4091.19900
8.60565	0.00000	4069.89000
8.60948	0.00000	4069.89000
8.61331	0.00000	4069.89000
8.61715	0.00000	4069.89000
8.62098	0.00000	4069.89000
8.62481	0.00000	4091.19900
8.62864	0.00000	4091.19900
8.63247	0.00000	4091.19900
8.63630	0.00000	4091.19900
8.64013	0.00000	4091.19900
8.64396	0.00000	4110.33100
8.64780	0.00000	4110.33100
8.65163	0.00000	4110.33100
8.65546	0.00000	4110.33100
8.65929	0.00000	4110.33100
8.66312	0.00000	4097.57600
8.66695	0.00000	4097.57600
8.67078	0.00000	4097.57600
8.67462	0.00000	4097.57600
8.67845	0.00000	4097.57600
8.68228	0.00000	4081.63200
8.68612	0.00000	4081.63200
8.68994	0.00000	4081.63200
8.69377	0.00000	4081.63200
8.69761	0.00000	4081.63200
8.70145	0.00000	4100.76500
8.70528	0.00000	4100.76500
8.70910	0.00000	4100.76500
8.71294	0.00000	4100.76500
8.71676	0.00000	4100.76500
8.72059	0.00000	4094.38700
8.72444	0.00000	4094.38700
8.72827	0.00000	4094.38700
8.73210	0.00000	4094.38700
8.73593	0.00000	4094.38700
8.73976	0.00000	4069.89000
8.74359	0.00000	4069.89000
8.74742	0.00000	4069.89000
8.75125	0.00000	4069.89000
8.75508	0.00000	4069.89000
8.75891	0.00000	4100.76500
8.76274	0.00000	4100.76500
8.76657	0.00000	4100.76500
8.77040	0.00000	4100.76500
8.77422	0.00000	4100.76500
8.77806	0.00000	4091.19900
8.78189	0.00000	4091.19900
8.78572	0.00000	4091.19900
8.78955	0.00000	4091.19900
8.79340	0.00000	4091.19900
8.79723	0.00000	4069.89000
8.80106	0.00000	4069.89000
8.80489	0.00000	4069.89000
8.80872	0.00000	4069.89000
8.81255	0.00000	4069.89000
8.81638	0.00000	4084.82100
8.82021	0.00000	4084.82100
8.82404	0.00000	4084.82100
8.82787	0.00000	4084.82100
8.83170	0.00000	4084.82100
8.83553	0.00000	4063.55500
8.83935	0.00000	4063.55500
8.84318	0.00000	4063.55500
8.84702	0.00000	4063.55500
8.85085	0.00000	4063.55500
8.85469	0.00000	4097.57600
8.85852	0.00000	4097.57600
8.86234	0.00000	4097.57600
8.86617	0.00000	4097.57600
8.87000	0.00000	4097.57600
8.87383	0.00000	4088.01000
8.87766	0.00000	4088.01000
8.88151	0.00000	4088.01000
8.88538	0.00000	4088.01000
8.88922	0.00000	4088.01000
8.89306	0.00000	4066.72300
8.89690	0.00000	4066.72300
8.90073	0.00000	4066.72300
8.90456	0.00000	4066.72300
8.90839	0.00000	4066.72300
8.91222	0.00000	4097.57600
8.91606	0.00000	4097.57600
8.91989	0.00000	4097.57600
8.92372	0.00000	4097.57600
8.92755	0.00000	4097.57600
8.93138	0.00000	4091.19900
8.93522	0.00000	4091.19900
8.93905	0.00000	4091.19900
8.94288	0.00000	4091.19900
8.94671	0.00000	4091.19900
8.95054	0.00000	4069.89000
8.95437	0.00000	4069.89000
8.95821	0.00000	4069.89000
8.96203	0.00000	4069.89000
8.96586	0.00000	4069.89000
8.96969	0.00000	4084.82100
8.97353	0.00000	4084.82100
8.97737	0.00000	4084.82100
8.98120	0.00000	4084.82100
8.98503	0.00000	4084.82100
8.98887	0.00000	4094.38700
8.99271	0.00000	4094.38700
8.99655	0.00000	4094.38700
9.00038	0.00000	4094.38700
9.00420	0.00000	4094.38700
9.00805	0.00000	4081.63200
9.01193	0.00000	4081.63200
9.01577	0.00000	4081.63200
9.01961	0.00000	4081.63200
9.02345	0.00000	4081.63200
9.02732	0.00000	4094.38700
9.03118	0.00000	4094.38700
9.03501	0.00000	4094.38700
9.03884	0.00000	4094.38700
9.04267	0.00000	4094.38700
9.04649	0.00000	4109.58800
9.05034	0.00000	4109.58800
9.05418	0.00000	4109.58800
9.05801	0.00000	4109.58800
9.06184	0.00000	4109.58800
9.06567	0.00000	4075.25500
9.06950	0.00000	4075.25500
9.07334	0.00000	4075.25500
9.07717	0.00000	4075.25500
9.08100	0.00000	4075.25500
9.08483	0.00000	4075.25500
9.08865	0.00000	4075.25500
9.09249	0.00000	4075.25500
9.09631	0.00000	4075.25500
9.10015	0.00000	4075.25500
9.10398	0.00000	4090.32500
9.10782	0.00000	4090.32500
9.11165	0.00000	4090.32500
9.11549	0.00000	4090.32500
9.11932	0.00000	4090.32500
9.12315	0.00000	4078.44400
9.12697	0.00000	4078.44400
9.13080	0.00000	4078.44400
9.13463	0.00000	4078.44400
9.13845	0.00000	4078.44400
9.14228	0.00000	4078.44400
9.14611	0.00000	4106.37800
9.14994	0.00000	4106.37800
9.15376	0.00000	4106.37800
9.15755	0.00000	4106.37800
9.16138	0.00000	4106.37800
9.16521	0.00000	4078.44400
9.16903	0.00000	4078.44400
9.17286	0.00000	4078.44400
9.17668	0.00000	4078.44400
9.18051	0.00000	4078.44400
9.18435	0.00000	4081.63200
9.18817	0.00000	4081.63200
9.19200	0.00000	4081.63200
9.19584	0.00000	4081.63200
9.19966	0.00000	4081.63200
9.20350	0.00000	4081.63200
9.20733	0.00000	4081.63200
9.21116	0.00000	4081.63200
9.21499	0.00000	4081.63200
9.21881	0.00000	4081.63200
9.22263	0.00000	4075.25500
9.22646	0.00000	4075.25500
9.23030	0.00000	4075.25500
9.23413	0.00000	4075.25500
9.23797	0.00000	4075.25500
9.24180	0.00000	4084.82100
9.24563	0.00000	4084.82100
9.24947	0.00000	4084.82100
9.25331	0.00000	4084.82100
9.25714	0.00000	4084.82100
9.26097	0.00000	4091.19900
9.26480	0.00000	4091.19900
9.26863	0.00000	4091.19900
9.27246	0.00000	4091.19900
9.27629	0.00000	4091.19900
9.28012	0.00000	4084.82100
9.28395	0.00000	4084.82100
9.28778	0.00000	4084.82100
9.29162	0.00000	4084.82100
9.29545	0.00000	4084.82100
9.29928	0.00000	4081.63200
9.30312	0.00000	4081.63200
9.30694	0.00000	4081.63200
9.31077	0.00000	4081.63200
9.31460	0.00000	4081.63200
9.31844	0.00000	4091.19900
9.32228	0.00000	4091.19900
9.32610	0.00000	4091.19900
9.32993	0.00000	4091.19900
9.33376	0.00000	4091.19900
9.33755	0.00000	4081.63200
9.34138	0.00000	4081.63200
9.34521	0.00000	4081.63200
9.34904	0.00000	4081.63200
9.35288	0.00000	4081.63200
9.35671	0.00000	4084.82100
9.36054	0.00000	4084.82100
9.36437	0.00000	4084.82100
9.36820	0.00000	4084.82100
9.37203	0.00000	4084.82100
9.37586	0.00000	4063.55500
9.37968	0.00000	4063.55500
9.38352	0.00000	4063.55500
9.38737	0.00000	4063.55500
9.39119	0.00000	4063.55500
9.39502	0.00000	4091.19900
9.39886	0.00000	4091.19900
9.40268	0.00000	4091.19900
9.40653	0.00000	4091.19900
9.41036	0.00000	4091.19900
9.41419	0.00000	4084.82100
9.41801	0.00000	4084.82100
9.42184	0.00000	4084.82100
9.42566	0.00000	4084.82100
9.42950	0.00000	4084.82100
9.43333	0.00000	4078.44400
9.43717	0.00000	4078.44400
9.44100	0.00000	4078.44400
9.44483	0.00000	4078.44400
9.44865	0.00000	4078.44400
9.45249	0.00000	4097.57600
9.45632	0.00000	4097.57600
9.46014	0.00000	4097.57600
9.46399	0.00000	4097.57600
9.46783	0.00000	4097.57600
9.47167	0.00000	4081.63200
9.47551	0.00000	4081.63200
9.47935	0.00000	4081.63200
9.48317	0.00000	4081.63200
9.48700	0.00000	4081.63200
9.49083	0.00000	4091.19900
9.49466	0.00000	4091.19900
9.49849	0.00000	4091.19900
9.50232	0.00000	4091.19900
9.50614	0.00000	4091.19900
9.50998	0.00000	4078.44400
9.51380	0.00000	4078.44400
9.51763	0.00000	4078.44400
9.52146	0.00000	4078.44400
9.52528	0.00000	4078.44400
9.52910	0.00000	4081.63200
9.53293	0.00000	4081.63200
9.53675	0.00000	4081.63200
9.54058	0.00000	4081.63200
9.54441	0.00000	4081.63200
9.54824	0.00000	4081.63200
9.55208	0.00000	4081.63200
9.55590	0.00000	4081.63200
9.55974	0.00000	4081.63200
9.56356	0.00000	4081.63200
9.56740	0.00000	4078.44400
9.57122	0.00000	4078.44400
9.57505	0.00000	4078.44400
9.57890	0.00000	4078.44400
9.58273	0.00000	4078.44400
9.58656	0.00000	4088.01000
9.59040	0.00000	4088.01000
9.59423	0.00000	4088.01000
9.59806	0.00000	4088.01000
9.60188	0.00000	4088.01000
9.60571	0.00000	4060.38800
9.60955	0.00000	4060.38800
9.61338	0.00000	4060.38800
9.61721	0.00000	4060.38800
9.62104	0.00000	4060.38800
9.62488	0.00000	4088.01000
9.62871	0.00000	4088.01000
9.63255	0.00000	4088.01000
9.63639	0.00000	4088.01000
9.64022	0.00000	4088.01000
9.64405	0.00000	4075.25500
9.64789	0.00000	4075.25500
9.65173	0.00000	4075.25500
9.65556	0.00000	4075.25500
9.65939	0.00000	4075.25500
9.66322	0.00000	4075.25500
9.66706	0.00000	4075.25500
9.67089	0.00000	4075.25500
9.67472	0.00000	4075.25500
9.67855	0.00000	4075.25500
9.68238	0.00000	4060.38800
9.68622	0.00000	4060.38800
9.69005	0.00000	4060.38800
9.69387	0.00000	4060.38800
9.69771	0.00000	4060.38800
9.70155	0.00000	4088.01000
9.70540	0.00000	4088.01000
9.70923	0.00000	4088.01000
9.71306	0.00000	4088.01000
9.71688	0.00000	4088.01000
9.72072	0.00000	4106.37800
9.72455	0.00000	4106.37800
9.72839	0.00000	4106.37800
9.73221	0.00000	4106.37800
9.73604	0.00000	4106.37800
9.73986	0.00000	4068.87700
9.74369	0.00000	4068.87700
9.74753	0.00000	4068.87700
9.75136	0.00000	4068.87700
9.75519	0.00000	4068.87700
9.75902	0.00000	4072.06600
9.76285	0.00000	4072.06600
9.76667	0.00000	4072.06600
9.77051	0.00000	4072.06600
9.77433	0.00000	4072.06600
9.77816	0.00000	4087.11400
9.78200	0.00000	4087.11400
9.78583	0.00000	4087.11400
9.78966	0.00000	4087.11400
9.79350	0.00000	4087.11400
9.79733	0.00000	4087.11400
9.80116	0.00000	4078.44400
9.80500	0.00000	4078.44400
9.80883	0.00000	4078.44400
9.81266	0.00000	4078.44400
9.81649	0.00000	4078.44400
9.82032	0.00000	4078.44400
9.82415	0.00000	4078.44400
9.82797	0.00000	4078.44400
9.83180	0.00000	4078.44400
9.83564	0.00000	4078.44400
9.83947	0.00000	4093.53600
9.84330	0.00000	4093.53600
9.84713	0.00000	4093.53600
9.85096	0.00000	4093.53600
9.85479	0.00000	4093.53600
9.85861	0.00000	4065.68900
9.86244	0.00000	4065.68900
9.86628	0.00000	4065.68900
9.87011	0.00000	4065.68900
9.87394	0.00000	4065.68900
9.87777	0.00000	4081.63200
9.88162	0.00000	4081.63200
9.88546	0.00000	4081.63200
9.88929	0.00000	4081.63200
9.89312	0.00000	4081.63200
9.89695	0.00000	4091.19900
9.90078	0.00000	4091.19900
9.90461	0.00000	4091.19900
9.90845	0.00000	4091.19900
9.91228	0.00000	4091.19900
9.91611	0.00000	4062.50000
9.91994	0.00000	4062.50000
9.92376	0.00000	4062.50000
9.92759	0.00000	4062.50000
9.93142	0.00000	4062.50000
9.93527	0.00000	4057.22100
9.93909	0.00000	4057.22100
9.94292	0.00000	4057.22100
9.94676	0.00000	4057.22100
9.95059	0.00000	4057.22100
9.95442	0.00000	4078.44400
9.95825	0.00000	4078.44400
9.96209	0.00000	4078.44400
9.96591	0.00000	4078.44400
9.96974	0.00000	4078.44400
9.97355	0.00000	4081.63200
9.97738	0.00000	4081.63200
9.98121	0.00000	4081.63200
9.98504	0.00000	4081.63200
9.98887	0.00000	4081.63200
9.99270	0.00000	4078.44400
9.99654	0.00000	4078.44400
