Time (s)   Thrust (N)   RPM
0.00019	1.87272	3626.25500
0.03348	2.11422	3941.30900
0.06820	2.72865	4314.93900
0.14788	2.90130	4427.48900
0.18258	3.02442	4469.75800
0.21729	3.10839	4543.18200
0.25200	3.17561	4590.74700
0.28672	3.23098	4612.00100
0.32141	3.27516	4644.95300
0.35614	3.31064	4667.44500
0.39085	3.33174	4673.03200
0.42554	3.35207	4688.22600
0.46027	3.36360	4696.91100
0.49498	3.37235	4700.07600
0.52967	3.38555	4709.16800
0.56440	3.38616	4716.34600
0.59913	3.38488	4716.49400
0.63383	3.39410	4719.55400
0.71265	3.39934	4716.49400
0.74736	3.39292	4723.18300
0.78207	3.39431	4723.50200
0.81679	3.39544	4723.28200
0.85148	3.39701	4721.36800
0.88621	3.39372	4721.36800
0.92092	3.39392	4718.61900
0.95563	3.39398	4722.43500
0.99034	3.39708	4726.38300
1.02507	3.40252	4726.26300
1.05976	3.40519	4728.51000
1.09447	3.39599	4719.67900
1.12918	3.39512	4729.26200
1.16389	3.39568	4725.63300
1.19860	3.39011	4728.57100
1.23331	3.39338	4730.32600
1.26802	3.39241	4724.56800
1.30275	3.39687	4726.89100
1.33744	3.39830	4724.56800
1.37215	3.39630	4723.59900
1.40686	3.39965	4726.38300
1.44156	3.40191	4725.63300
1.47627	3.39983	4719.67900
1.51100	3.40519	4727.44700
1.54571	3.39710	4725.31700
1.58042	3.39992	4724.65700
1.61512	3.40091	4725.63300
1.64983	3.39324	4723.28200
1.68455	3.40548	4727.13300
1.71924	3.40168	4728.51000
1.75396	3.39864	4725.40000
1.78867	3.40048	4723.50200
1.82338	3.40046	4726.38300
1.85809	3.39699	4722.54000
1.89281	3.40037	4728.51000
1.92751	3.40027	4726.45800
1.96222	3.40061	4722.43500
1.99693	3.40339	4720.62200
2.03163	3.39301	4716.49400
2.06635	3.39403	4725.31700
2.10106	3.39617	4724.56800
2.13577	3.39973	4723.59900
2.17048	3.40107	4726.38300
2.20519	3.39744	4725.40000
2.23991	3.39761	4723.50200
2.27462	3.39661	4722.75500
2.30927	3.39831	4723.28200
2.34402	3.40445	4723.50200
2.37874	3.39454	4727.44700
2.41344	3.40894	4721.48000
2.44816	3.40226	4723.50200
2.48287	3.40729	4725.40000
2.51759	3.40162	4731.38900
2.55228	3.40863	4722.43500
2.58699	3.40188	4720.41900
2.62173	3.40718	4723.50200
2.65641	3.40662	4727.44700
2.69111	3.40699	4723.59900
2.72582	3.40915	4720.62200
2.76054	3.40484	4722.22200
2.79523	3.41275	4722.75500
2.82994	3.40806	4718.48600
2.90863	3.40744	4723.59900
2.94330	3.41115	4724.25100
2.97801	3.40566	4724.25100
3.01272	3.40565	4717.55700
3.04743	3.40911	4721.68900
3.08212	3.40467	4720.62200
3.11684	3.40228	4725.63300
3.19654	3.40974	4726.38300
3.23123	3.40811	4724.25100
3.26596	3.40995	4717.55700
3.30066	3.40609	4721.36800
3.33535	3.39491	4719.35800
3.37008	3.40688	4724.25100
3.40478	3.40494	4725.31700
3.43948	3.40458	4720.41900
3.47419	3.40742	4718.48600
3.50891	3.40444	4720.62200
3.54361	3.41014	4722.54000
3.57833	3.40588	4727.13300
3.61303	3.40693	4723.28200
3.64773	3.41144	4725.31700
3.68245	3.40271	4717.41600
3.71715	3.39829	4720.41900
3.75186	3.40155	4723.50200
3.78657	3.40278	4725.00000
3.82127	3.39964	4722.22200
3.85598	3.41074	4721.36800
3.89071	3.40115	4716.49400
3.92540	3.40598	4719.55400
3.96012	3.40505	4722.43500
3.99482	3.39615	4725.40000
4.02953	3.40153	4726.38300
4.06424	3.40596	4718.48600
4.09893	3.39655	4719.67900
4.13367	3.40173	4722.43500
4.16835	3.39870	4724.34200
4.20307	3.40513	4727.13300
4.23778	3.40941	4722.43500
4.27249	3.41440	4718.61900
4.30721	3.41160	4724.25100
4.34190	3.40690	4721.36800
4.37665	3.41040	4725.40000
4.41133	3.40315	4721.36800
4.44603	3.40447	4723.50200
4.52441	3.40198	4716.49400
4.55912	3.39901	4722.43500
4.59383	3.40230	4719.35800
4.62853	3.40829	4723.50200
4.66324	3.40135	4718.48600
4.69796	3.39909	4720.41900
4.73267	3.40194	4720.62200
4.76736	3.40948	4724.25100
4.80208	3.40743	4717.23300
4.83680	3.41009	4723.18300
4.91647	3.40202	4719.23100
4.95118	3.40234	4719.35800
4.98589	3.40308	4718.48600
5.02096	3.40305	4718.29600
5.05531	3.15187	4467.69600
5.09000	2.81283	4219.75200
5.12472	2.55990	4042.55300
5.15942	2.36613	3903.54800
5.19413	2.22128	3798.70100
5.22884	2.10174	3711.12100
5.26356	2.01581	3647.97100
5.29826	1.94645	3591.19300
5.33297	1.88949	3553.58800
5.36768	1.84784	3521.23000
5.40239	1.79951	3487.00300
5.43710	1.77798	3465.79700
5.47181	1.75136	3449.85100
5.50651	1.73207	3435.79500
5.54123	1.71631	3420.59500
5.57594	1.70747	3408.75200
5.61065	1.69088	3400.59800
5.64535	1.68688	3396.50800
5.68006	1.68407	3386.97600
5.71478	1.67917	3380.80900
5.74948	1.67034	3384.19200
5.78419	1.66588	3375.00000
5.81891	1.67057	3376.68800
5.85361	1.65694	3372.55800
5.93273	1.65643	3366.73300
5.96743	1.65458	3366.73300
6.00215	1.65501	3368.42100
6.03686	1.65718	3370.11000
6.07158	1.65500	3366.34900
6.10629	1.65547	3366.73300
6.14101	1.65578	3364.66100
6.21940	1.65669	3364.66100
6.25411	1.65773	3366.73300
6.28882	1.65301	3366.34900
6.32353	1.65405	3366.34900
6.35823	1.65313	3366.34900
6.39295	1.65413	3366.34900
6.42765	1.65539	3362.58700
6.46238	1.65373	3362.58700
6.49707	1.65170	3362.58700
6.53178	1.65543	3364.66100
6.56649	1.65542	3364.66100
6.60120	1.65911	3366.73300
6.63591	1.65649	3362.58700
6.67062	1.64802	3368.42100
6.70533	1.65233	3360.51100
6.74003	1.65265	3362.58700
6.77475	1.65101	3368.03800
6.80946	1.64996	3366.34900
6.84416	1.64972	3367.11700
6.87888	1.64848	3360.90200
6.91358	1.64924	3362.97600
6.94830	1.65021	3364.66100
6.98301	1.65066	3362.97600
7.01772	1.65220	3366.73300
7.05242	1.65314	3364.66100
7.08714	1.65223	3368.42100
7.12186	1.65385	3362.97600
7.15656	1.65478	3364.66100
7.19126	1.65235	3368.42100
7.22598	1.65333	3365.04700
7.26068	1.65169	3370.49100
7.29539	1.64874	3366.73300
7.33010	1.65522	3366.73300
7.36482	1.65100	3366.73300
7.39953	1.65055	3366.34900
7.43423	1.65200	3368.42100
7.46894	1.65270	3366.73300
7.50365	1.65170	3368.42100
7.53836	1.65174	3365.04700
7.61664	1.65754	3370.49100
7.65133	1.65121	3366.73300
7.68605	1.65477	3368.42100
7.72075	1.65507	3364.66100
7.75546	1.65327	3370.11000
7.79018	1.65655	3366.34900
7.82489	1.65384	3366.34900
7.85961	1.65724	3360.51100
7.89432	1.65792	3366.34900
7.92902	1.65887	3362.58700
7.96373	1.65648	3362.58700
7.99844	1.65638	3362.58700
8.03316	1.65688	3364.66100
8.06785	1.66374	3362.58700
8.10258	1.65863	3362.58700
8.13729	1.65663	3362.58700
8.17198	1.65715	3364.27500
8.20671	1.65745	3360.51100
8.24141	1.65253	3362.58700
8.27613	1.65968	3362.58700
8.31083	1.65725	3360.90200
8.34554	1.66217	3360.90200
8.38029	1.65835	3360.90200
8.45860	1.66445	3362.58700
8.49542	1.66040	3360.90200
8.57504	1.66374	3362.58700
8.60974	1.66349	3362.58700
8.64444	1.66091	3358.82600
8.67915	1.66205	3362.58700
8.71386	1.66559	3358.82600
8.74856	1.65923	3358.43300
8.78327	1.66187	3358.82600
8.86168	1.65945	3362.58700
8.89639	1.66230	3360.51100
8.93111	1.65943	3360.51100
8.96581	1.65957	3364.27500
9.00052	1.65797	3360.90200
9.03523	1.66247	3358.82600
9.06994	1.66199	3359.21800
9.10471	1.66501	3358.43300
9.18405	1.66076	3358.82600
9.21875	1.66062	3358.82600
9.25346	1.66187	3356.35300
9.28816	1.65837	3362.19800
9.32286	1.66024	3354.66800
9.35757	1.65345	3356.35300
9.39228	1.65854	3356.35300
9.42700	1.65585	3362.19800
9.46170	1.65351	3360.51100
9.49642	1.65885	3358.82600
9.53112	1.66107	3362.58700
9.56583	1.66099	3358.82600
9.60055	1.66120	3358.82600
9.63526	1.66077	3362.58700
9.66997	1.65726	3358.82600
9.70468	1.66012	3356.74800
9.73939	1.66078	3358.82600
9.77409	1.66534	3358.43300
9.80881	1.65970	3362.19800
9.84353	1.66607	3358.43300
9.87822	1.66368	3360.51100
9.91296	1.65824	3358.43300
9.99165	1.66220	3362.19800
