Time (s)   Thrust (N)   RPM
0.00026	0.76350	2330.48300
0.03326	0.72337	2232.14200
0.06803	0.67161	2176.98300
0.10276	0.62199	2107.09900
0.13751	0.58902	2077.20500
0.17227	0.56192	2023.51400
0.20703	0.53430	1977.10300
0.24178	0.50232	1940.62400
0.27654	0.47894	1898.43700
0.31129	0.46500	1865.62500
0.34604	0.45078	1846.59100
0.38079	0.43704	1831.95100
0.41556	0.42414	1817.60200
0.45031	0.41358	1770.83300
0.48507	0.40456	1764.98700
0.51985	0.39324	1750.63700
0.55459	0.38708	1749.35500
0.58933	0.37782	1734.85800
0.62404	0.37359	1730.02500
0.65885	0.37060	1715.52800
0.69361	0.36546	1705.86300
0.72837	0.36260	1701.03000
0.76311	0.35794	1686.53300
0.79786	0.35841	1681.70100
0.83260	0.35409	1676.86800
0.86738	0.35266	1689.45300
0.90213	0.34790	1667.20300
0.93688	0.34877	1684.57000
0.97164	0.34120	1662.37100
1.00641	0.34109	1662.37100
1.04116	0.34023	1652.70600
1.07592	0.34070	1652.70600
1.11066	0.34288	1647.87300
1.14542	0.34257	1647.87300
1.18018	0.34043	1665.03900
1.21494	0.33827	1655.27300
1.24969	0.33484	1655.27300
1.28444	0.33358	1643.04100
1.31921	0.33356	1660.15600
1.35396	0.33803	1655.27300
1.38871	0.33694	1638.20800
1.42347	0.33976	1650.39000
1.45822	0.33565	1655.27300
1.49298	0.33603	1655.27300
1.52773	0.33054	1633.37600
1.56249	0.33155	1650.39000
1.59723	0.32839	1655.27300
1.67654	0.33225	1655.27300
1.71130	0.33210	1633.37600
1.74606	0.33220	1650.39000
1.78081	0.33086	1645.50700
1.81557	0.33303	1650.39000
1.85033	0.33337	1633.37600
1.88508	0.33446	1655.27300
1.91985	0.32978	1650.39000
1.99938	0.33092	1645.50700
2.03415	0.33319	1650.39000
2.06890	0.33355	1650.39000
2.10367	0.33238	1633.37600
2.13842	0.32874	1655.27300
2.17318	0.32792	1650.39000
2.20793	0.32822	1650.39000
2.24269	0.33165	1633.37600
2.27745	0.33417	1650.39000
2.31221	0.33500	1650.39000
2.34697	0.33089	1645.50700
2.38172	0.32768	1638.20800
2.41647	0.32716	1650.39000
2.45123	0.32762	1645.50700
2.48599	0.33213	1650.39000
2.52075	0.33358	1645.50700
2.55551	0.33216	1645.50700
2.59026	0.33024	1633.37600
2.62503	0.32807	1650.39000
2.65978	0.32688	1633.37600
2.69454	0.32952	1650.39000
2.72928	0.33120	1638.20800
2.76404	0.33189	1650.39000
2.79880	0.33002	1655.27300
2.83354	0.32808	1655.27300
2.86830	0.32799	1633.37600
2.90306	0.32656	1655.27300
2.93781	0.32844	1650.39000
2.97257	0.33243	1655.27300
3.00733	0.33210	1650.39000
3.04207	0.33035	1633.37600
3.07683	0.32644	1650.39000
3.11158	0.32549	1638.20800
3.14634	0.32565	1655.27300
3.18109	0.32887	1650.39000
3.21585	0.32826	1655.27300
3.25061	0.33302	1650.39000
3.28536	0.33080	1638.20800
3.32012	0.32984	1650.39000
3.35487	0.32931	1633.37600
3.38963	0.32921	1650.39000
3.42438	0.33196	1655.27300
3.45914	0.33439	1655.27300
3.49389	0.33299	1638.20800
3.52865	0.33136	1638.20800
3.56340	0.32938	1655.27300
3.59816	0.32715	1650.39000
3.63292	0.32655	1638.20800
3.66767	0.33170	1633.37600
3.70243	0.33335	1650.39000
3.73718	0.33223	1650.39000
3.77193	0.32963	1650.39000
3.80668	0.33028	1638.20800
3.84144	0.32824	1650.39000
3.87620	0.33055	1650.39000
3.91095	0.33230	1650.39000
3.94570	0.33424	1633.37600
3.98047	0.33323	1645.50700
4.01521	0.33214	1650.39000
4.04997	0.32689	1650.39000
4.08472	0.32823	1633.37600
4.11948	0.33079	1650.39000
4.15424	0.33181	1633.37600
4.18899	0.33175	1650.39000
4.22374	0.33104	1655.27300
4.25850	0.32956	1633.37600
4.29325	0.32636	1633.37600
4.32800	0.32780	1655.27300
4.36275	0.33019	1650.39000
4.39752	0.33246	1645.50700
4.43226	0.33234	1650.39000
4.46703	0.33310	1650.39000
4.50177	0.32713	1650.39000
4.53653	0.32777	1645.50700
4.57128	0.32899	1650.39000
4.60603	0.33067	1633.37600
4.64080	0.33309	1633.37600
4.67554	0.33432	1645.50700
4.71030	0.33314	1645.50700
4.74505	0.33169	1645.50700
4.77981	0.32946	1655.27300
4.81458	0.33174	1633.37600
4.84932	0.33567	1650.39000
4.88408	0.33391	1645.50700
4.91883	0.33273	1650.39000
4.95359	0.33073	1650.39000
4.98835	0.32904	1633.37600
5.02311	0.32873	1650.39000
5.05787	0.32949	1655.27300
5.09262	0.33407	1650.39000
5.12737	0.33417	1650.39000
5.16212	0.33168	1645.50700
5.19687	0.33031	1645.50700
5.23163	0.33829	1650.39000
5.26641	0.33376	1650.39000
5.34472	0.33219	1650.39000
5.37952	0.32998	1645.50700
5.41428	0.32986	1645.50700
5.44904	0.33249	1645.50700
5.48379	0.33473	1645.50700
5.51855	0.33427	1645.50700
5.55330	0.33589	1628.54300
5.58806	0.33432	1645.50700
5.62282	0.33139	1628.54300
5.65757	0.33015	1640.62500
5.69232	0.33409	1650.39000
5.72709	0.33450	1645.50700
5.76184	0.33446	1645.50700
5.79659	0.33402	1645.50700
5.83135	0.33117	1645.50700
5.86610	0.33030	1645.50700
5.90086	0.33013	1650.39000
5.93561	0.33458	1645.50700
5.97038	0.33538	1628.54300
0.00021	0.33858	1672.03600
0.03459	0.38720	1832.38600
0.06934	0.45558	1949.25700
0.10408	0.51674	2022.05800
0.13885	0.57345	2141.54400
0.17359	0.62737	2189.01600
0.20834	0.66827	2241.07100
0.24310	0.69587	2272.99500
0.27786	0.73188	2334.90500
0.31262	0.76368	2374.70500
0.34738	0.78616	2400.70100
0.38214	0.80237	2426.98500
0.41689	0.82080	2439.23600
0.45166	0.84223	2465.27700
0.48639	0.84775	2478.29800
0.52115	0.87202	2504.34000
0.55590	0.86571	2513.02000
0.59065	0.87724	2502.86700
0.62541	0.88342	2511.46700
0.66016	0.88409	2520.06800
0.69493	0.90525	2532.97000
0.72967	0.88250	2537.27000
0.76443	0.91608	2518.46600
0.79919	0.88973	2545.87100
0.83394	0.91999	2550.17200
0.86870	0.90426	2558.77300
0.90345	0.92181	2554.47200
0.93820	0.90648	2563.07300
0.97297	0.91500	2563.07300
1.00772	0.91310	2563.07300
1.04249	0.91776	2539.77200
1.07723	0.91607	2539.77200
1.11198	0.91189	2539.77200
1.14673	0.91510	2563.07300
1.18150	0.91549	2563.07300
1.21625	0.93049	2544.03400
1.29480	0.90656	2567.37300
1.32956	0.93276	2544.03400
1.36431	0.90720	2539.77200
1.39907	0.92669	2571.67400
1.43382	0.90379	2548.29500
1.46858	0.93021	2548.29500
1.50334	0.91313	2571.67400
1.53810	0.92471	2548.29500
1.57284	0.91475	2571.67400
1.60760	0.92375	2552.55700
1.64235	0.91660	2571.67400
1.67711	0.92027	2552.55700
1.71186	0.91725	2548.29500
1.74662	0.92019	2552.55700
1.78138	0.92267	2575.97400
1.81613	0.91537	2552.55700
1.85089	0.92515	2575.97400
1.88564	0.90825	2552.55700
1.92040	0.92754	2571.67400
1.95515	0.90514	2548.29500
1.98992	0.93149	2575.97400
2.02466	0.90887	2571.67400
2.05943	0.93167	2552.55700
2.09417	0.91117	2580.27500
2.12894	0.93268	2548.29500
2.16368	0.91151	2575.97400
2.19844	0.93475	2552.55700
2.23319	0.91114	2548.29500
2.26795	0.93252	2548.29500
2.30272	0.91365	2571.67400
2.33746	0.92627	2552.55700
2.37221	0.91157	2571.67400
2.40697	0.92541	2552.55700
2.44174	0.91696	2575.97400
2.47650	0.92496	2575.97400
2.55538	0.92522	2552.55700
2.59011	0.91363	2552.55700
2.62486	0.93221	2575.97400
2.65961	0.90984	2552.55700
2.69438	0.93387	2556.81800
2.72912	0.90652	2580.27500
2.76388	0.93297	2552.55700
2.79863	0.90601	2580.27500
2.83339	0.93509	2556.81800
2.86815	0.90423	2556.81800
2.90291	0.93319	2580.27500
2.93766	0.90856	2561.07900
2.97241	0.93439	2556.81800
3.00717	0.91020	2580.27500
3.04194	0.92834	2556.81800
3.07668	0.90911	2556.81800
3.11143	0.92700	2580.27500
3.14618	0.91543	2556.81800
3.18095	0.92934	2556.81800
3.21570	0.91908	2584.57500
3.25045	0.92754	2561.07900
3.28522	0.92120	2561.07900
3.31996	0.92500	2561.07900
3.35473	0.92053	2584.57500
3.38948	0.92278	2556.81800
3.42423	0.92188	2556.81800
3.45899	0.92146	2584.57500
3.49374	0.92205	2561.07900
3.52850	0.91814	2552.55700
3.56326	0.92752	2556.81800
3.59801	0.91782	2556.81800
3.67694	0.93403	2575.97400
3.71169	0.91104	2556.81800
3.79154	0.93544	2580.27500
3.82629	0.91394	2580.27500
3.86104	0.93169	2561.07900
3.89580	0.91383	2556.81800
3.93055	0.92730	2580.27500
3.96531	0.92045	2556.81800
4.00008	0.92691	2580.27500
4.03483	0.92458	2556.81800
4.06958	0.92345	2556.81800
4.10433	0.92151	2575.97400
4.13909	0.91928	2552.55700
4.17384	0.92269	2552.55700
4.20859	0.91995	2580.27500
4.24335	0.93003	2556.81800
4.27811	0.91882	2584.57500
4.31285	0.92809	2580.27500
4.34762	0.91599	2556.81800
4.38237	0.93060	2575.97400
4.41711	0.91207	2556.81800
4.45188	0.92966	2552.55700
4.48663	0.90661	2580.27500
4.52139	0.93463	2552.55700
4.55615	0.90863	2556.81800
4.59089	0.93519	2575.97400
4.62566	0.90823	2552.55700
4.66040	0.93158	2580.27500
4.69516	0.91095	2561.07900
4.72991	0.93524	2556.81800
4.76466	0.91170	2580.27500
4.79940	0.93337	2556.81800
4.83417	0.91314	2561.07900
4.86894	0.93028	2575.97400
4.90369	0.91341	2552.55700
4.93844	0.92760	2580.27500
4.97320	0.91786	2580.27500
5.00796	0.92357	2552.55700
5.04272	0.92127	2580.27500
5.07748	0.92475	2556.81800
5.11222	0.92393	2556.81800
5.14698	0.92462	2584.57500
5.18173	0.92152	2556.81800
5.21649	0.92232	2561.07900
5.25124	0.92847	2584.57500
5.28600	0.91750	2556.81800
5.32075	0.93303	2556.81800
5.35552	0.91791	2580.27500
5.39026	0.93592	2552.55700
5.42503	0.91630	2556.81800
5.45978	0.93634	2548.29500
5.49454	0.91091	2552.55700
5.52929	0.93658	2580.27500
5.56405	0.91108	2552.55700
5.59880	0.93746	2575.97400
5.63356	0.91004	2556.81800
5.66832	0.93584	2575.97400
5.70307	0.91042	2552.55700
5.73783	0.93460	2575.97400
5.77258	0.91265	2552.55700
5.80733	0.93083	2552.55700
5.88574	0.92699	2552.55700
5.92050	0.92419	2575.97400
5.95526	0.92457	2552.55700
5.99001	0.92229	2580.27500
